##TITLE= ChirpLin300kHz1m5s1000
##JCAMP-DX= 5.00 Bruker JCAMP library
##DATA TYPE= Shape Data
##ORIGIN= Bruker BioSpin GmbH
##OWNER= <M.FOROOZANDEH>
##DATE= 2014/03/24
##TIME= 19:25:48
##$SHAPE_PARAMETERS= Type: SmoothedChirp ; Total Sweep-Width [Hz] 300000.0 ; Length of Pulse [usec] 1000.0 ; % to be smoothed 5.0 ; 1=High to low field, -1=Low to high field -1.0 ; smoothing 0.0
##MINX= 0
##MAXX= 100
##MINY= 0
##MAXY= 358.8951
##$SHAPE_EXMODE= Adiabatic
##$SHAPE_TOTROT= 1.800000E02
##$SHAPE_TYPE= Inversion
##$SHAPE_USER_DEF= 
##$SHAPE_REPHFAC= 
##$SHAPE_BWFAC= 2.735620E02
##$SHAPE_BWFAC50= 
##$SHAPE_INTEGFAC= 3.236043E-02
##$SHAPE_MODE= 0
##NPOINTS= 1000
##XYPOINTS= (XY..XY)

0.000000, 0.000000
3.205158, 306.000054
6.407022, 252.108325
9.602303, 198.324811
12.787716, 144.649514
15.959990, 91.082434
19.115863, 37.623570
22.252093, 344.272922
25.365458, 291.030490
28.452759, 237.896275
31.510822, 184.870276
34.536505, 131.952493
37.526700, 79.142927
40.478334, 26.441577
43.388374, 333.848443
46.253829, 281.363526
49.071755, 228.986825
51.839257, 176.718340
54.553490, 124.558072
57.211666, 72.506020
59.811053, 20.562184
62.348980, 328.726564
64.822840, 276.999161
67.230089, 225.379975
69.568255, 173.869004
71.834935, 122.466250
74.027800, 71.171712
76.144596, 19.985391
78.183148, 328.907286
80.141362, 277.937397
82.017225, 227.075724
83.808810, 176.322268
85.514276, 125.677028
87.131870, 75.140005
88.659931, 24.711198
90.096887, 334.390607
91.441262, 284.178232
92.691676, 234.074074
93.846842, 184.078132
94.905575, 134.190407
95.866785, 84.410897
96.729486, 34.739604
97.492791, 345.176528
98.155916, 295.721668
98.718178, 246.375024
99.179001, 197.136596
99.537911, 148.006385
99.794539, 98.984390
99.948622, 50.070611
100.000000, 1.265049
100.000000, 312.567703
100.000000, 263.978573
100.000000, 215.497660
100.000000, 167.124963
100.000000, 118.860482
100.000000, 70.704218
100.000000, 22.656170
100.000000, 334.716338
100.000000, 286.884723
100.000000, 239.161323
100.000000, 191.546141
100.000000, 144.039174
100.000000, 96.640424
100.000000, 49.349890
100.000000, 2.167573
100.000000, 315.093472
100.000000, 268.127587
100.000000, 221.269919
100.000000, 174.520466
100.000000, 127.879231
100.000000, 81.346211
100.000000, 34.921408
100.000000, 348.604821
100.000000, 302.396451
100.000000, 256.296296
100.000000, 210.304358
100.000000, 164.420637
100.000000, 118.645132
100.000000, 72.977843
100.000000, 27.418770
100.000000, 341.967914
100.000000, 296.625274
100.000000, 251.390850
100.000000, 206.264643
100.000000, 161.246652
100.000000, 116.336877
100.000000, 71.535319
100.000000, 26.841977
100.000000, 342.256851
100.000000, 297.779942
100.000000, 253.411249
100.000000, 209.150772
100.000000, 164.998512
100.000000, 120.954468
100.000000, 77.018640
100.000000, 33.191029
100.000000, 349.471634
100.000000, 305.860455
100.000000, 262.357493
100.000000, 218.962747
100.000000, 175.676217
100.000000, 132.497903
100.000000, 89.427806
100.000000, 46.465925
100.000000, 3.612261
100.000000, 320.866813
100.000000, 278.229581
100.000000, 235.700565
100.000000, 193.279766
100.000000, 150.967183
100.000000, 108.762817
100.000000, 66.666667
100.000000, 24.678733
100.000000, 342.799015
100.000000, 301.027514
100.000000, 259.364229
100.000000, 217.809161
100.000000, 176.362308
100.000000, 135.023672
100.000000, 93.793253
100.000000, 52.671049
100.000000, 11.657062
100.000000, 330.751292
100.000000, 289.953738
100.000000, 249.264400
100.000000, 208.683278
100.000000, 168.210373
100.000000, 127.845684
100.000000, 87.589211
100.000000, 47.440954
100.000000, 7.400914
100.000000, 327.469091
100.000000, 287.645483
100.000000, 247.930092
100.000000, 208.322918
100.000000, 168.823959
100.000000, 129.433217
100.000000, 90.150691
100.000000, 50.976382
100.000000, 11.910289
100.000000, 332.952412
100.000000, 294.102751
100.000000, 255.361307
100.000000, 216.728079
100.000000, 178.203068
100.000000, 139.786273
100.000000, 101.477694
100.000000, 63.277331
100.000000, 25.185185
100.000000, 347.201255
100.000000, 309.325542
100.000000, 271.558045
100.000000, 233.898764
100.000000, 196.347699
100.000000, 158.904851
100.000000, 121.570219
100.000000, 84.343803
100.000000, 47.225604
100.000000, 10.215621
100.000000, 333.313854
100.000000, 296.520304
100.000000, 259.834970
100.000000, 223.257852
100.000000, 186.788951
100.000000, 150.428266
100.000000, 114.175797
100.000000, 78.031545
100.000000, 41.995509
100.000000, 6.067689
100.000000, 330.248086
100.000000, 294.536699
100.000000, 258.933528
100.000000, 223.438574
100.000000, 188.051836
100.000000, 152.773314
100.000000, 117.603008
100.000000, 82.540919
100.000000, 47.587047
100.000000, 12.741390
100.000000, 338.003950
100.000000, 303.374726
100.000000, 268.853719
100.000000, 234.440927
100.000000, 200.136353
100.000000, 165.939994
100.000000, 131.851852
100.000000, 97.871926
100.000000, 64.000216
100.000000, 30.236723
100.000000, 356.581446
100.000000, 323.034386
100.000000, 289.595541
100.000000, 256.264914
100.000000, 223.042502
100.000000, 189.928307
100.000000, 156.922328
100.000000, 124.024565
100.000000, 91.235019
100.000000, 58.553689
100.000000, 25.980575
100.000000, 353.515678
100.000000, 321.158997
100.000000, 288.910532
100.000000, 256.770284
100.000000, 224.738252
100.000000, 192.814436
100.000000, 160.998837
100.000000, 129.291454
100.000000, 97.692287
100.000000, 66.201336
100.000000, 34.818602
100.000000, 3.544085
100.000000, 332.377783
100.000000, 301.319698
100.000000, 270.369829
100.000000, 239.528177
100.000000, 208.794741
100.000000, 178.169521
100.000000, 147.652517
100.000000, 117.243730
100.000000, 86.943159
100.000000, 56.750805
100.000000, 26.666667
100.000000, 356.690745
100.000000, 326.823039
100.000000, 297.063550
100.000000, 267.412277
100.000000, 237.869221
100.000000, 208.434380
100.000000, 179.107756
100.000000, 149.889349
100.000000, 120.779158
100.000000, 91.777183
100.000000, 62.883424
100.000000, 34.097882
100.000000, 5.420556
100.000000, 336.851446
100.000000, 308.390553
100.000000, 280.037876
100.000000, 251.793415
100.000000, 223.657171
100.000000, 195.629143
100.000000, 167.709331
100.000000, 139.897736
100.000000, 112.194357
100.000000, 84.599194
100.000000, 57.112247
100.000000, 29.733517
100.000000, 2.463004
100.000000, 335.300706
100.000000, 308.246625
100.000000, 281.300760
100.000000, 254.463112
100.000000, 227.733680
100.000000, 201.112464
100.000000, 174.599464
100.000000, 148.194681
100.000000, 121.898114
100.000000, 95.709764
100.000000, 69.629630
100.000000, 43.657712
100.000000, 17.794010
100.000000, 352.038525
100.000000, 326.391256
100.000000, 300.852204
100.000000, 275.421367
100.000000, 250.098747
100.000000, 224.884344
100.000000, 199.778157
100.000000, 174.780186
100.000000, 149.890431
100.000000, 125.108893
100.000000, 100.435571
100.000000, 75.870465
100.000000, 51.413576
100.000000, 27.064903
100.000000, 2.824446
100.000000, 338.692206
100.000000, 314.668182
100.000000, 290.752374
100.000000, 266.944783
100.000000, 243.245408
100.000000, 219.654249
100.000000, 196.171306
100.000000, 172.796580
100.000000, 149.530071
100.000000, 126.371777
100.000000, 103.321700
100.000000, 80.379839
100.000000, 57.546195
100.000000, 34.820767
100.000000, 12.203555
100.000000, 349.694559
100.000000, 327.293780
100.000000, 305.001217
100.000000, 282.816871
100.000000, 260.740741
100.000000, 238.772827
100.000000, 216.913129
100.000000, 195.161648
100.000000, 173.518383
100.000000, 151.983335
100.000000, 130.556502
100.000000, 109.237887
100.000000, 88.027487
100.000000, 66.925304
100.000000, 45.931337
100.000000, 25.045586
100.000000, 4.268052
100.000000, 343.598734
100.000000, 323.037632
100.000000, 302.584747
100.000000, 282.240078
100.000000, 262.003625
100.000000, 241.875389
100.000000, 221.855369
100.000000, 201.943565
100.000000, 182.139978
100.000000, 162.444607
100.000000, 142.857452
100.000000, 123.378514
100.000000, 104.007792
100.000000, 84.745286
100.000000, 65.590996
100.000000, 46.544923
100.000000, 27.607067
100.000000, 8.777426
100.000000, 350.056002
100.000000, 331.442794
100.000000, 312.937803
100.000000, 294.541028
100.000000, 276.252469
100.000000, 258.072126
100.000000, 240.000000
100.000000, 222.036090
100.000000, 204.180397
100.000000, 186.432919
100.000000, 168.793659
100.000000, 151.262614
100.000000, 133.839786
100.000000, 116.525174
100.000000, 99.318778
100.000000, 82.220599
100.000000, 65.230636
100.000000, 48.348889
100.000000, 31.575359
100.000000, 14.910045
100.000000, 358.352948
100.000000, 341.904066
100.000000, 325.563401
100.000000, 309.330953
100.000000, 293.206720
100.000000, 277.190704
100.000000, 261.282905
100.000000, 245.483321
100.000000, 229.791954
100.000000, 214.208803
100.000000, 198.733869
100.000000, 183.367151
100.000000, 168.108649
100.000000, 152.958364
100.000000, 137.916295
100.000000, 122.982442
100.000000, 108.156805
100.000000, 93.439385
100.000000, 78.830182
100.000000, 64.329194
100.000000, 49.936423
100.000000, 35.651868
100.000000, 21.475530
100.000000, 7.407407
100.000000, 353.447502
100.000000, 339.595812
100.000000, 325.852339
100.000000, 312.217082
100.000000, 298.690041
100.000000, 285.271217
100.000000, 271.960609
100.000000, 258.758218
100.000000, 245.664042
100.000000, 232.678083
100.000000, 219.800341
100.000000, 207.030815
100.000000, 194.369505
100.000000, 181.816411
100.000000, 169.371534
100.000000, 157.034873
100.000000, 144.806428
100.000000, 132.686200
100.000000, 120.674188
100.000000, 108.770392
100.000000, 96.974813
100.000000, 85.287450
100.000000, 73.708303
100.000000, 62.237373
100.000000, 50.874658
100.000000, 39.620161
100.000000, 28.473879
100.000000, 17.435814
100.000000, 6.505965
100.000000, 355.684333
100.000000, 344.970917
100.000000, 334.365717
100.000000, 323.868734
100.000000, 313.479966
100.000000, 303.199416
100.000000, 293.027081
100.000000, 282.962963
100.000000, 273.007061
100.000000, 263.159376
100.000000, 253.419906
100.000000, 243.788654
100.000000, 234.265617
100.000000, 224.850797
100.000000, 215.544193
100.000000, 206.345805
100.000000, 197.255634
100.000000, 188.273679
100.000000, 179.399940
100.000000, 170.634418
100.000000, 161.977112
100.000000, 153.428023
100.000000, 144.987149
100.000000, 136.654492
100.000000, 128.430052
100.000000, 120.313827
100.000000, 112.305819
100.000000, 104.406028
100.000000, 96.614452
100.000000, 88.931093
100.000000, 81.355951
100.000000, 73.889024
100.000000, 66.530314
100.000000, 59.279820
100.000000, 52.137543
100.000000, 45.103482
100.000000, 38.177637
100.000000, 31.360009
100.000000, 24.650597
100.000000, 18.049401
100.000000, 11.556421
100.000000, 5.171658
100.000000, 358.895111
100.000000, 352.726781
100.000000, 346.666667
100.000000, 340.714769
100.000000, 334.871087
100.000000, 329.135622
100.000000, 323.508373
100.000000, 317.989341
100.000000, 312.578524
100.000000, 307.275925
100.000000, 302.081541
100.000000, 296.995374
100.000000, 292.017423
100.000000, 287.147688
100.000000, 282.386170
100.000000, 277.732868
100.000000, 273.187782
100.000000, 268.750913
100.000000, 264.422260
100.000000, 260.201823
100.000000, 256.089603
100.000000, 252.085599
100.000000, 248.189811
100.000000, 244.402240
100.000000, 240.722885
100.000000, 237.151746
100.000000, 233.688824
100.000000, 230.334118
100.000000, 227.087628
100.000000, 223.949355
100.000000, 220.919298
100.000000, 217.997457
100.000000, 215.183832
100.000000, 212.478424
100.000000, 209.881233
100.000000, 207.392257
100.000000, 205.011498
100.000000, 202.738955
100.000000, 200.574629
100.000000, 198.518519
100.000000, 196.570625
100.000000, 194.730947
100.000000, 192.999486
100.000000, 191.376241
100.000000, 189.861213
100.000000, 188.454400
100.000000, 187.155804
100.000000, 185.965425
100.000000, 184.883262
100.000000, 183.909315
100.000000, 183.043584
100.000000, 182.286070
100.000000, 181.636772
100.000000, 181.095690
100.000000, 180.662825
100.000000, 180.338176
100.000000, 180.121743
100.000000, 180.013527
100.000000, 180.013527
100.000000, 180.121743
100.000000, 180.338176
100.000000, 180.662825
100.000000, 181.095690
100.000000, 181.636772
100.000000, 182.286070
100.000000, 183.043584
100.000000, 183.909315
100.000000, 184.883262
100.000000, 185.965425
100.000000, 187.155804
100.000000, 188.454400
100.000000, 189.861213
100.000000, 191.376241
100.000000, 192.999486
100.000000, 194.730947
100.000000, 196.570625
100.000000, 198.518519
100.000000, 200.574629
100.000000, 202.738955
100.000000, 205.011498
100.000000, 207.392257
100.000000, 209.881233
100.000000, 212.478424
100.000000, 215.183832
100.000000, 217.997457
100.000000, 220.919298
100.000000, 223.949355
100.000000, 227.087628
100.000000, 230.334118
100.000000, 233.688824
100.000000, 237.151746
100.000000, 240.722885
100.000000, 244.402240
100.000000, 248.189811
100.000000, 252.085599
100.000000, 256.089603
100.000000, 260.201823
100.000000, 264.422260
100.000000, 268.750913
100.000000, 273.187782
100.000000, 277.732868
100.000000, 282.386170
100.000000, 287.147688
100.000000, 292.017423
100.000000, 296.995374
100.000000, 302.081541
100.000000, 307.275925
100.000000, 312.578524
100.000000, 317.989341
100.000000, 323.508373
100.000000, 329.135622
100.000000, 334.871087
100.000000, 340.714769
100.000000, 346.666667
100.000000, 352.726781
100.000000, 358.895111
100.000000, 5.171658
100.000000, 11.556421
100.000000, 18.049401
100.000000, 24.650597
100.000000, 31.360009
100.000000, 38.177637
100.000000, 45.103482
100.000000, 52.137543
100.000000, 59.279820
100.000000, 66.530314
100.000000, 73.889024
100.000000, 81.355951
100.000000, 88.931093
100.000000, 96.614452
100.000000, 104.406028
100.000000, 112.305819
100.000000, 120.313827
100.000000, 128.430052
100.000000, 136.654492
100.000000, 144.987149
100.000000, 153.428023
100.000000, 161.977112
100.000000, 170.634418
100.000000, 179.399940
100.000000, 188.273679
100.000000, 197.255634
100.000000, 206.345805
100.000000, 215.544193
100.000000, 224.850797
100.000000, 234.265617
100.000000, 243.788654
100.000000, 253.419906
100.000000, 263.159376
100.000000, 273.007061
100.000000, 282.962963
100.000000, 293.027081
100.000000, 303.199416
100.000000, 313.479966
100.000000, 323.868734
100.000000, 334.365717
100.000000, 344.970917
100.000000, 355.684333
100.000000, 6.505965
100.000000, 17.435814
100.000000, 28.473879
100.000000, 39.620161
100.000000, 50.874658
100.000000, 62.237373
100.000000, 73.708303
100.000000, 85.287450
100.000000, 96.974813
100.000000, 108.770392
100.000000, 120.674188
100.000000, 132.686200
100.000000, 144.806428
100.000000, 157.034873
100.000000, 169.371534
100.000000, 181.816411
100.000000, 194.369505
100.000000, 207.030815
100.000000, 219.800341
100.000000, 232.678083
100.000000, 245.664042
100.000000, 258.758218
100.000000, 271.960609
100.000000, 285.271217
100.000000, 298.690041
100.000000, 312.217082
100.000000, 325.852339
100.000000, 339.595812
100.000000, 353.447502
100.000000, 7.407407
100.000000, 21.475530
100.000000, 35.651868
100.000000, 49.936423
100.000000, 64.329194
100.000000, 78.830182
100.000000, 93.439385
100.000000, 108.156805
100.000000, 122.982442
100.000000, 137.916295
100.000000, 152.958364
100.000000, 168.108649
100.000000, 183.367151
100.000000, 198.733869
100.000000, 214.208803
100.000000, 229.791954
100.000000, 245.483321
100.000000, 261.282905
100.000000, 277.190704
100.000000, 293.206720
100.000000, 309.330953
100.000000, 325.563401
100.000000, 341.904066
100.000000, 358.352948
100.000000, 14.910045
100.000000, 31.575359
100.000000, 48.348889
100.000000, 65.230636
100.000000, 82.220599
100.000000, 99.318778
100.000000, 116.525174
100.000000, 133.839786
100.000000, 151.262614
100.000000, 168.793659
100.000000, 186.432919
100.000000, 204.180397
100.000000, 222.036090
100.000000, 240.000000
100.000000, 258.072126
100.000000, 276.252469
100.000000, 294.541028
100.000000, 312.937803
100.000000, 331.442794
100.000000, 350.056002
100.000000, 8.777426
100.000000, 27.607067
100.000000, 46.544923
100.000000, 65.590996
100.000000, 84.745286
100.000000, 104.007792
100.000000, 123.378514
100.000000, 142.857452
100.000000, 162.444607
100.000000, 182.139978
100.000000, 201.943565
100.000000, 221.855369
100.000000, 241.875389
100.000000, 262.003625
100.000000, 282.240078
100.000000, 302.584747
100.000000, 323.037632
100.000000, 343.598734
100.000000, 4.268052
100.000000, 25.045586
100.000000, 45.931337
100.000000, 66.925304
100.000000, 88.027487
100.000000, 109.237887
100.000000, 130.556502
100.000000, 151.983335
100.000000, 173.518383
100.000000, 195.161648
100.000000, 216.913129
100.000000, 238.772827
100.000000, 260.740741
100.000000, 282.816871
100.000000, 305.001217
100.000000, 327.293780
100.000000, 349.694559
100.000000, 12.203555
100.000000, 34.820767
100.000000, 57.546195
100.000000, 80.379839
100.000000, 103.321700
100.000000, 126.371777
100.000000, 149.530071
100.000000, 172.796580
100.000000, 196.171306
100.000000, 219.654249
100.000000, 243.245408
100.000000, 266.944783
100.000000, 290.752374
100.000000, 314.668182
100.000000, 338.692206
100.000000, 2.824446
100.000000, 27.064903
100.000000, 51.413576
100.000000, 75.870465
100.000000, 100.435571
100.000000, 125.108893
100.000000, 149.890431
100.000000, 174.780186
100.000000, 199.778157
100.000000, 224.884344
100.000000, 250.098747
100.000000, 275.421367
100.000000, 300.852204
100.000000, 326.391256
100.000000, 352.038525
100.000000, 17.794010
100.000000, 43.657712
100.000000, 69.629630
100.000000, 95.709764
100.000000, 121.898114
100.000000, 148.194681
100.000000, 174.599464
100.000000, 201.112464
100.000000, 227.733680
100.000000, 254.463112
100.000000, 281.300760
100.000000, 308.246625
100.000000, 335.300706
100.000000, 2.463004
100.000000, 29.733517
100.000000, 57.112247
100.000000, 84.599194
100.000000, 112.194357
100.000000, 139.897736
100.000000, 167.709331
100.000000, 195.629143
100.000000, 223.657171
100.000000, 251.793415
100.000000, 280.037876
100.000000, 308.390553
100.000000, 336.851446
100.000000, 5.420556
100.000000, 34.097882
100.000000, 62.883424
100.000000, 91.777183
100.000000, 120.779158
100.000000, 149.889349
100.000000, 179.107756
100.000000, 208.434380
100.000000, 237.869221
100.000000, 267.412277
100.000000, 297.063550
100.000000, 326.823039
100.000000, 356.690745
100.000000, 26.666667
100.000000, 56.750805
100.000000, 86.943159
100.000000, 117.243730
100.000000, 147.652517
100.000000, 178.169521
100.000000, 208.794741
100.000000, 239.528177
100.000000, 270.369829
100.000000, 301.319698
100.000000, 332.377783
100.000000, 3.544085
100.000000, 34.818602
100.000000, 66.201336
100.000000, 97.692287
100.000000, 129.291454
100.000000, 160.998837
100.000000, 192.814436
100.000000, 224.738252
100.000000, 256.770284
100.000000, 288.910532
100.000000, 321.158997
100.000000, 353.515678
100.000000, 25.980575
100.000000, 58.553689
100.000000, 91.235019
100.000000, 124.024565
100.000000, 156.922328
100.000000, 189.928307
100.000000, 223.042502
100.000000, 256.264914
100.000000, 289.595541
100.000000, 323.034386
100.000000, 356.581446
100.000000, 30.236723
100.000000, 64.000216
100.000000, 97.871926
100.000000, 131.851852
100.000000, 165.939994
100.000000, 200.136353
100.000000, 234.440927
100.000000, 268.853719
100.000000, 303.374726
100.000000, 338.003950
100.000000, 12.741390
100.000000, 47.587047
100.000000, 82.540919
100.000000, 117.603008
100.000000, 152.773314
100.000000, 188.051836
100.000000, 223.438574
100.000000, 258.933528
100.000000, 294.536699
100.000000, 330.248086
100.000000, 6.067689
100.000000, 41.995509
100.000000, 78.031545
100.000000, 114.175797
100.000000, 150.428266
100.000000, 186.788951
100.000000, 223.257852
100.000000, 259.834970
100.000000, 296.520304
100.000000, 333.313854
100.000000, 10.215621
100.000000, 47.225604
100.000000, 84.343803
100.000000, 121.570219
100.000000, 158.904851
100.000000, 196.347699
100.000000, 233.898764
100.000000, 271.558045
100.000000, 309.325542
100.000000, 347.201255
100.000000, 25.185185
100.000000, 63.277331
100.000000, 101.477694
100.000000, 139.786273
100.000000, 178.203068
100.000000, 216.728079
100.000000, 255.361307
100.000000, 294.102751
100.000000, 332.952412
100.000000, 11.910289
100.000000, 50.976382
100.000000, 90.150691
100.000000, 129.433217
100.000000, 168.823959
100.000000, 208.322918
100.000000, 247.930092
100.000000, 287.645483
100.000000, 327.469091
100.000000, 7.400914
100.000000, 47.440954
100.000000, 87.589211
100.000000, 127.845684
100.000000, 168.210373
100.000000, 208.683278
100.000000, 249.264400
100.000000, 289.953738
100.000000, 330.751292
100.000000, 11.657062
100.000000, 52.671049
100.000000, 93.793253
100.000000, 135.023672
100.000000, 176.362308
100.000000, 217.809161
100.000000, 259.364229
100.000000, 301.027514
100.000000, 342.799015
100.000000, 24.678733
100.000000, 66.666667
100.000000, 108.762817
100.000000, 150.967183
100.000000, 193.279766
100.000000, 235.700565
100.000000, 278.229581
100.000000, 320.866813
100.000000, 3.612261
100.000000, 46.465925
100.000000, 89.427806
100.000000, 132.497903
100.000000, 175.676217
100.000000, 218.962747
100.000000, 262.357493
100.000000, 305.860455
100.000000, 349.471634
100.000000, 33.191029
100.000000, 77.018640
100.000000, 120.954468
100.000000, 164.998512
100.000000, 209.150772
100.000000, 253.411249
100.000000, 297.779942
100.000000, 342.256851
100.000000, 26.841977
100.000000, 71.535319
100.000000, 116.336877
100.000000, 161.246652
100.000000, 206.264643
100.000000, 251.390850
100.000000, 296.625274
100.000000, 341.967914
100.000000, 27.418770
100.000000, 72.977843
100.000000, 118.645132
100.000000, 164.420637
100.000000, 210.304358
100.000000, 256.296296
100.000000, 302.396451
100.000000, 348.604821
100.000000, 34.921408
100.000000, 81.346211
100.000000, 127.879231
100.000000, 174.520466
100.000000, 221.269919
100.000000, 268.127587
100.000000, 315.093472
100.000000, 2.167573
100.000000, 49.349890
100.000000, 96.640424
100.000000, 144.039174
100.000000, 191.546141
100.000000, 239.161323
100.000000, 286.884723
100.000000, 334.716338
100.000000, 22.656170
100.000000, 70.704218
100.000000, 118.860482
100.000000, 167.124963
100.000000, 215.497660
100.000000, 263.978573
100.000000, 312.567703
100.000000, 1.265049
99.948622, 50.070611
99.794539, 98.984390
99.537911, 148.006385
99.179001, 197.136596
98.718178, 246.375024
98.155916, 295.721668
97.492791, 345.176528
96.729486, 34.739604
95.866785, 84.410897
94.905575, 134.190407
93.846842, 184.078132
92.691676, 234.074074
91.441262, 284.178232
90.096887, 334.390607
88.659931, 24.711198
87.131870, 75.140005
85.514276, 125.677028
83.808810, 176.322268
82.017225, 227.075724
80.141362, 277.937397
78.183148, 328.907286
76.144596, 19.985391
74.027800, 71.171712
71.834935, 122.466250
69.568255, 173.869004
67.230089, 225.379975
64.822840, 276.999161
62.348980, 328.726564
59.811053, 20.562184
57.211666, 72.506020
54.553490, 124.558072
51.839257, 176.718340
49.071755, 228.986825
46.253829, 281.363526
43.388374, 333.848443
40.478334, 26.441577
37.526700, 79.142927
34.536505, 131.952493
31.510822, 184.870276
28.452759, 237.896275
25.365458, 291.030490
22.252093, 344.272922
19.115863, 37.623570
15.959990, 91.082434
12.787716, 144.649514
9.602303, 198.324811
6.407022, 252.108325
3.205158, 306.000054
0.000000, 0.000000
##END=
