##TITLE= ChirpLin300kHz2m5s2000
##JCAMP-DX= 5.00 Bruker JCAMP library
##DATA TYPE= Shape Data
##ORIGIN= Bruker BioSpin GmbH
##OWNER= <M.FOROOZANDEH>
##DATE= 2014/03/24
##TIME= 19:25:48
##$SHAPE_PARAMETERS= Type: SmoothedChirp ; Total Sweep-Width [Hz] 300000.0 ; Length of Pulse [usec] 1000.0 ; % to be smoothed 5.0 ; 1=High to low field, -1=Low to high field -1.0 ; smoothing 0.0
##MINX= 0
##MAXX= 100
##MINY= 0.2712
##MAXY= 359.8906
##$SHAPE_EXMODE= Adiabatic
##$SHAPE_TOTROT= 1.800000E02
##$SHAPE_TYPE= Inversion
##$SHAPE_USER_DEF= 
##$SHAPE_REPHFAC= 
##$SHAPE_BWFAC= 2.735620E02
##$SHAPE_BWFAC50= 
##$SHAPE_INTEGFAC= 3.236043E-02
##$SHAPE_MODE= 0
##NPOINTS= 2000
##XYPOINTS= (XY..XY)

0.000000, 339.685654
1.586596, 287.501461
3.172793, 235.348351
4.758192, 183.226568
6.342392, 131.136352
7.924996, 79.077942
9.505604, 27.051573
11.083820, 335.057481
12.659245, 283.095898
14.231484, 231.167052
15.800140, 179.271174
17.364818, 127.408488
18.925124, 75.579220
20.480667, 23.783590
22.031053, 332.021820
23.575894, 280.294127
25.114799, 228.600727
26.647381, 176.941835
28.173256, 125.317664
29.692038, 73.728423
31.203345, 22.174322
32.706796, 330.655566
34.202014, 279.172361
35.688622, 227.724910
37.166246, 176.313414
38.634513, 124.938071
40.093054, 73.599081
41.541501, 22.296637
42.979491, 331.030935
44.406661, 279.802167
45.822652, 228.610522
47.227107, 177.456189
48.619674, 126.339355
50.000000, 75.260206
51.367739, 24.218925
52.722547, 333.215694
54.064082, 282.250692
55.392006, 231.324099
56.705986, 180.436090
58.005691, 129.586842
59.290793, 78.776527
60.560969, 28.005318
61.815899, 337.273384
63.055267, 286.580895
64.278761, 235.928018
65.486073, 185.314917
66.676900, 134.741757
67.850941, 84.208701
69.007901, 33.715909
70.147489, 343.263541
71.269417, 292.851755
72.373404, 242.480706
73.459171, 192.150550
74.526445, 141.861440
75.574957, 91.613528
76.604444, 41.406964
77.614646, 351.241898
78.605309, 301.118477
79.576184, 251.036848
80.527026, 200.997154
81.457595, 150.999540
82.367658, 101.044147
83.256985, 51.131115
84.125353, 1.260585
84.972543, 311.432695
85.798341, 261.647579
86.602540, 211.905374
87.384938, 162.206214
88.145336, 112.550231
88.883545, 62.937557
89.599377, 13.368321
90.292654, 323.842652
90.963200, 274.360677
91.610846, 224.922523
92.235429, 175.528314
92.836793, 126.178174
93.414786, 76.872226
93.969262, 27.610591
94.500082, 338.393388
95.007112, 289.220737
95.490224, 240.092754
95.949297, 191.009558
96.384216, 141.971261
96.794870, 92.977980
97.181157, 44.029826
97.542979, 355.126911
97.880245, 306.269347
98.192870, 257.457242
98.480775, 208.690705
98.743889, 159.969842
98.982144, 111.294762
99.195481, 62.665567
99.383846, 14.082363
99.547192, 325.545252
99.685478, 277.054336
99.798668, 228.609717
99.886734, 180.211493
99.949654, 131.859763
99.987413, 83.554625
100.000000, 35.296176
100.000000, 347.084512
100.000000, 298.919727
100.000000, 250.801914
100.000000, 202.731167
100.000000, 154.707577
100.000000, 106.731234
100.000000, 58.802229
100.000000, 10.920651
100.000000, 323.086587
100.000000, 275.300123
100.000000, 227.561347
100.000000, 179.870344
100.000000, 132.227196
100.000000, 84.631988
100.000000, 37.084802
100.000000, 349.585720
100.000000, 302.134821
100.000000, 254.732186
100.000000, 207.377894
100.000000, 160.072022
100.000000, 112.814648
100.000000, 65.605847
100.000000, 18.445696
100.000000, 331.334269
100.000000, 284.271639
100.000000, 237.257880
100.000000, 190.293064
100.000000, 143.377262
100.000000, 96.510544
100.000000, 49.692981
100.000000, 2.924642
100.000000, 316.205594
100.000000, 269.535905
100.000000, 222.915641
100.000000, 176.344870
100.000000, 129.823655
100.000000, 83.352062
100.000000, 36.930153
100.000000, 350.557993
100.000000, 304.235643
100.000000, 257.963164
100.000000, 211.740619
100.000000, 165.568065
100.000000, 119.445565
100.000000, 73.373174
100.000000, 27.350953
100.000000, 341.378959
100.000000, 295.457247
100.000000, 249.585875
100.000000, 203.764897
100.000000, 157.994368
100.000000, 112.274343
100.000000, 66.604874
100.000000, 20.986016
100.000000, 335.417819
100.000000, 289.900335
100.000000, 244.433616
100.000000, 199.017712
100.000000, 153.652672
100.000000, 108.338546
100.000000, 63.075382
100.000000, 17.863228
100.000000, 332.702132
100.000000, 287.592140
100.000000, 242.533299
100.000000, 197.525654
100.000000, 152.569250
100.000000, 107.664132
100.000000, 62.810344
100.000000, 18.007929
100.000000, 333.256931
100.000000, 288.557391
100.000000, 243.909351
100.000000, 199.312854
100.000000, 154.767939
100.000000, 110.274647
100.000000, 65.833018
100.000000, 21.443091
100.000000, 337.104904
100.000000, 292.818497
100.000000, 248.583906
100.000000, 204.401170
100.000000, 160.270325
100.000000, 116.191407
100.000000, 72.164452
100.000000, 28.189496
100.000000, 344.266574
100.000000, 300.395720
100.000000, 256.576968
100.000000, 212.810352
100.000000, 169.095905
100.000000, 125.433660
100.000000, 81.823649
100.000000, 38.265904
100.000000, 354.760456
100.000000, 311.307336
100.000000, 267.906576
100.000000, 224.558205
100.000000, 181.262252
100.000000, 138.018749
100.000000, 94.827722
100.000000, 51.689201
100.000000, 8.603215
100.000000, 325.569790
100.000000, 282.588955
100.000000, 239.660737
100.000000, 196.785161
100.000000, 153.962255
100.000000, 111.192044
100.000000, 68.474554
100.000000, 25.809810
100.000000, 343.197838
100.000000, 300.638660
100.000000, 258.132303
100.000000, 215.678789
100.000000, 173.278141
100.000000, 130.930384
100.000000, 88.635540
100.000000, 46.393631
100.000000, 4.204680
100.000000, 322.068708
100.000000, 279.985737
100.000000, 237.955788
100.000000, 195.978882
100.000000, 154.055039
100.000000, 112.184280
100.000000, 70.366625
100.000000, 28.602094
100.000000, 346.890705
100.000000, 305.232478
100.000000, 263.627431
100.000000, 222.075584
100.000000, 180.576954
100.000000, 139.131560
100.000000, 97.739418
100.000000, 56.400547
100.000000, 15.114963
100.000000, 333.882684
100.000000, 292.703726
100.000000, 251.578105
100.000000, 210.505837
100.000000, 169.486939
100.000000, 128.521425
100.000000, 87.609312
100.000000, 46.750613
100.000000, 5.945345
100.000000, 325.193522
100.000000, 284.495157
100.000000, 243.850266
100.000000, 203.258862
100.000000, 162.720958
100.000000, 122.236569
100.000000, 81.805707
100.000000, 41.428385
100.000000, 1.104616
100.000000, 320.834413
100.000000, 280.617789
100.000000, 240.454754
100.000000, 200.345322
100.000000, 160.289503
100.000000, 120.287310
100.000000, 80.338754
100.000000, 40.443846
100.000000, 0.602596
100.000000, 320.815016
100.000000, 281.081117
100.000000, 241.400907
100.000000, 201.774399
100.000000, 162.201601
100.000000, 122.682523
100.000000, 83.217176
100.000000, 43.805568
100.000000, 4.447709
100.000000, 325.143609
100.000000, 285.893275
100.000000, 246.696717
100.000000, 207.553944
100.000000, 168.464963
100.000000, 129.429783
100.000000, 90.448413
100.000000, 51.520860
100.000000, 12.647132
100.000000, 333.827237
100.000000, 295.061182
100.000000, 256.348975
100.000000, 217.690623
100.000000, 179.086132
100.000000, 140.535511
100.000000, 102.038766
100.000000, 63.595902
100.000000, 25.206928
100.000000, 346.871849
100.000000, 308.590672
100.000000, 270.363403
100.000000, 232.190047
100.000000, 194.070611
100.000000, 156.005100
100.000000, 117.993520
100.000000, 80.035877
100.000000, 42.132176
100.000000, 4.282422
100.000000, 326.486620
100.000000, 288.744776
100.000000, 251.056893
100.000000, 213.422978
100.000000, 175.843035
100.000000, 138.317068
100.000000, 100.845082
100.000000, 63.427081
100.000000, 26.063070
100.000000, 348.753053
100.000000, 311.497033
100.000000, 274.295015
100.000000, 237.147003
100.000000, 200.053000
100.000000, 163.013010
100.000000, 126.027037
100.000000, 89.095085
100.000000, 52.217155
100.000000, 15.393253
100.000000, 338.623381
100.000000, 301.907543
100.000000, 265.245741
100.000000, 228.637978
100.000000, 192.084258
100.000000, 155.584583
100.000000, 119.138955
100.000000, 82.747379
100.000000, 46.409855
100.000000, 10.126387
100.000000, 333.896977
100.000000, 297.721628
100.000000, 261.600342
100.000000, 225.533120
100.000000, 189.519966
100.000000, 153.560881
100.000000, 117.655867
100.000000, 81.804926
100.000000, 46.008061
100.000000, 10.265273
100.000000, 334.576563
100.000000, 298.941934
100.000000, 263.361387
100.000000, 227.834923
100.000000, 192.362545
100.000000, 156.944254
100.000000, 121.580050
100.000000, 86.269936
100.000000, 51.013913
100.000000, 15.811982
100.000000, 340.664144
100.000000, 305.570401
100.000000, 270.530753
100.000000, 235.545202
100.000000, 200.613748
100.000000, 165.736393
100.000000, 130.913137
100.000000, 96.143982
100.000000, 61.428928
100.000000, 26.767976
100.000000, 352.161126
100.000000, 317.608380
100.000000, 283.109738
100.000000, 248.665201
100.000000, 214.274769
100.000000, 179.938443
100.000000, 145.656223
100.000000, 111.428110
100.000000, 77.254104
100.000000, 43.134206
100.000000, 9.068416
100.000000, 335.056734
100.000000, 301.099161
100.000000, 267.195697
100.000000, 233.346342
100.000000, 199.551097
100.000000, 165.809961
100.000000, 132.122935
100.000000, 98.490018
100.000000, 64.911212
100.000000, 31.386516
100.000000, 357.915930
100.000000, 324.499453
100.000000, 291.137087
100.000000, 257.828831
100.000000, 224.574685
100.000000, 191.374649
100.000000, 158.228723
100.000000, 125.136907
100.000000, 92.099200
100.000000, 59.115603
100.000000, 26.186114
100.000000, 353.310735
100.000000, 320.489465
100.000000, 287.722304
100.000000, 255.009250
100.000000, 222.350305
100.000000, 189.745468
100.000000, 157.194738
100.000000, 124.698116
100.000000, 92.255600
100.000000, 59.867191
100.000000, 27.532888
100.000000, 355.252690
100.000000, 323.026599
100.000000, 290.854612
100.000000, 258.736730
100.000000, 226.672952
100.000000, 194.663277
100.000000, 162.707707
100.000000, 130.806239
100.000000, 98.958873
100.000000, 67.165609
100.000000, 35.426447
100.000000, 3.741386
100.000000, 332.110425
100.000000, 300.533565
100.000000, 269.010804
100.000000, 237.542141
100.000000, 206.127578
100.000000, 174.767112
100.000000, 143.460743
100.000000, 112.208472
100.000000, 81.010296
100.000000, 49.866217
100.000000, 18.776233
100.000000, 347.740343
100.000000, 316.758547
100.000000, 285.830845
100.000000, 254.957236
100.000000, 224.137720
100.000000, 193.372295
100.000000, 162.660961
100.000000, 132.003718
100.000000, 101.400565
100.000000, 70.851502
100.000000, 40.356528
100.000000, 9.915642
100.000000, 339.528844
100.000000, 309.196133
100.000000, 278.917508
100.000000, 248.692970
100.000000, 218.522517
100.000000, 188.406149
100.000000, 158.343866
100.000000, 128.335666
100.000000, 98.381550
100.000000, 68.481516
100.000000, 38.635564
100.000000, 8.843693
100.000000, 339.105904
100.000000, 309.422194
100.000000, 279.792565
100.000000, 250.217015
100.000000, 220.695543
100.000000, 191.228150
100.000000, 161.814834
100.000000, 132.455596
100.000000, 103.150434
100.000000, 73.899347
100.000000, 44.702337
100.000000, 15.559401
100.000000, 346.470540
100.000000, 317.435752
100.000000, 288.455038
100.000000, 259.528397
100.000000, 230.655828
100.000000, 201.837331
100.000000, 173.072906
100.000000, 144.362551
100.000000, 115.706267
100.000000, 87.104052
100.000000, 58.555908
100.000000, 30.061832
100.000000, 1.621825
100.000000, 333.235886
100.000000, 304.904015
100.000000, 276.626211
100.000000, 248.402473
100.000000, 220.232803
100.000000, 192.117198
100.000000, 164.055659
100.000000, 136.048185
100.000000, 108.094775
100.000000, 80.195430
100.000000, 52.350150
100.000000, 24.558932
100.000000, 356.821778
100.000000, 329.138687
100.000000, 301.509659
100.000000, 273.934693
100.000000, 246.413788
100.000000, 218.946945
100.000000, 191.534164
100.000000, 164.175443
100.000000, 136.870783
100.000000, 109.620183
100.000000, 82.423644
100.000000, 55.281163
100.000000, 28.192743
100.000000, 1.158381
100.000000, 334.178079
100.000000, 307.251835
100.000000, 280.379650
100.000000, 253.561523
100.000000, 226.797453
100.000000, 200.087442
100.000000, 173.431488
100.000000, 146.829591
100.000000, 120.281752
100.000000, 93.787969
100.000000, 67.348243
100.000000, 40.962574
100.000000, 14.630961
100.000000, 348.353404
100.000000, 322.129904
100.000000, 295.960459
100.000000, 269.845071
100.000000, 243.783738
100.000000, 217.776460
100.000000, 191.823238
100.000000, 165.924071
100.000000, 140.078960
100.000000, 114.287904
100.000000, 88.550903
100.000000, 62.867957
100.000000, 37.239066
100.000000, 11.664230
100.000000, 346.143449
100.000000, 320.676722
100.000000, 295.264051
100.000000, 269.905434
100.000000, 244.600872
100.000000, 219.350364
100.000000, 194.153912
100.000000, 169.011514
100.000000, 143.923171
100.000000, 118.888883
100.000000, 93.908649
100.000000, 68.982471
100.000000, 44.110347
100.000000, 19.292279
100.000000, 354.528265
100.000000, 329.818306
100.000000, 305.162403
100.000000, 280.560554
100.000000, 256.012761
100.000000, 231.519024
100.000000, 207.079342
100.000000, 182.693715
100.000000, 158.362145
100.000000, 134.084630
100.000000, 109.861171
100.000000, 85.691768
100.000000, 61.576421
100.000000, 37.515131
100.000000, 13.507897
100.000000, 349.554720
100.000000, 325.655600
100.000000, 301.810537
100.000000, 278.019531
100.000000, 254.282583
100.000000, 230.599692
100.000000, 206.970859
100.000000, 183.396084
100.000000, 159.875367
100.000000, 136.408708
100.000000, 112.996109
100.000000, 89.637568
100.000000, 66.333086
100.000000, 43.082663
100.000000, 19.886300
100.000000, 356.743997
100.000000, 333.655754
100.000000, 310.621571
100.000000, 287.641449
100.000000, 264.715388
100.000000, 241.843388
100.000000, 219.025449
100.000000, 196.261572
100.000000, 173.551757
100.000000, 150.896004
100.000000, 128.294314
100.000000, 105.746687
100.000000, 83.253123
100.000000, 60.813622
100.000000, 38.428186
100.000000, 16.096813
100.000000, 353.819505
100.000000, 331.596262
100.000000, 309.427084
100.000000, 287.311971
100.000000, 265.250924
100.000000, 243.243944
100.000000, 221.291030
100.000000, 199.392182
100.000000, 177.547402
100.000000, 155.756690
100.000000, 134.020045
100.000000, 112.337469
100.000000, 90.708962
100.000000, 69.134523
100.000000, 47.614154
100.000000, 26.147855
100.000000, 4.735626
100.000000, 343.377468
100.000000, 322.073380
100.000000, 300.823364
100.000000, 279.627420
100.000000, 258.485548
100.000000, 237.397748
100.000000, 216.364022
100.000000, 195.384369
100.000000, 174.458789
100.000000, 153.587284
100.000000, 132.769853
100.000000, 112.006498
100.000000, 91.297218
100.000000, 70.642013
100.000000, 50.040885
100.000000, 29.493834
100.000000, 9.000860
100.000000, 348.561963
100.000000, 328.177144
100.000000, 307.846404
100.000000, 287.569742
100.000000, 267.347160
100.000000, 247.178657
100.000000, 227.064235
100.000000, 207.003893
100.000000, 186.997632
100.000000, 167.045453
100.000000, 147.147355
100.000000, 127.303340
100.000000, 107.513407
100.000000, 87.777557
100.000000, 68.095792
100.000000, 48.468110
100.000000, 28.894513
100.000000, 9.375000
100.000000, 349.909573
100.000000, 330.498232
100.000000, 311.140977
100.000000, 291.837809
100.000000, 272.588728
100.000000, 253.393735
100.000000, 234.252830
100.000000, 215.166013
100.000000, 196.133285
100.000000, 177.154647
100.000000, 158.230098
100.000000, 139.359639
100.000000, 120.543272
100.000000, 101.780995
100.000000, 83.072810
100.000000, 64.418717
100.000000, 45.818717
100.000000, 27.272809
100.000000, 8.780995
100.000000, 350.343274
100.000000, 331.959648
100.000000, 313.630116
100.000000, 295.354680
100.000000, 277.133339
100.000000, 258.966093
100.000000, 240.852945
100.000000, 222.793893
100.000000, 204.788938
100.000000, 186.838081
100.000000, 168.941322
100.000000, 151.098661
100.000000, 133.310100
100.000000, 115.575638
100.000000, 97.895275
100.000000, 80.269013
100.000000, 62.696851
100.000000, 45.178790
100.000000, 27.714831
100.000000, 10.304974
100.000000, 352.949218
100.000000, 335.647566
100.000000, 318.400016
100.000000, 301.206570
100.000000, 284.067228
100.000000, 266.981990
100.000000, 249.950857
100.000000, 232.973828
100.000000, 216.050905
100.000000, 199.182088
100.000000, 182.367377
100.000000, 165.606773
100.000000, 148.900276
100.000000, 132.247885
100.000000, 115.649603
100.000000, 99.105429
100.000000, 82.615363
100.000000, 66.179406
100.000000, 49.797558
100.000000, 33.469820
100.000000, 17.196191
100.000000, 0.976673
100.000000, 344.811265
100.000000, 328.699969
100.000000, 312.642783
100.000000, 296.639709
100.000000, 280.690748
100.000000, 264.795898
100.000000, 248.955161
100.000000, 233.168538
100.000000, 217.436027
100.000000, 201.757630
100.000000, 186.133347
100.000000, 170.563179
100.000000, 155.047125
100.000000, 139.585186
100.000000, 124.177362
100.000000, 108.823653
100.000000, 93.524061
100.000000, 78.278584
100.000000, 63.087224
100.000000, 47.949981
100.000000, 32.866854
100.000000, 17.837845
100.000000, 2.862953
100.000000, 347.942180
100.000000, 333.075524
100.000000, 318.262987
100.000000, 303.504568
100.000000, 288.800268
100.000000, 274.150088
100.000000, 259.554026
100.000000, 245.012085
100.000000, 230.524263
100.000000, 216.090562
100.000000, 201.710980
100.000000, 187.385520
100.000000, 173.114180
100.000000, 158.896962
100.000000, 144.733864
100.000000, 130.624889
100.000000, 116.570035
100.000000, 102.569303
100.000000, 88.622693
100.000000, 74.730205
100.000000, 60.891840
100.000000, 47.107598
100.000000, 33.377479
100.000000, 19.701483
100.000000, 6.079610
100.000000, 352.511861
100.000000, 338.998236
100.000000, 325.538734
100.000000, 312.133356
100.000000, 298.782103
100.000000, 285.484974
100.000000, 272.241970
100.000000, 259.053090
100.000000, 245.918335
100.000000, 232.837705
100.000000, 219.811200
100.000000, 206.838821
100.000000, 193.920567
100.000000, 181.056438
100.000000, 168.246435
100.000000, 155.490558
100.000000, 142.788806
100.000000, 130.141181
100.000000, 117.547682
100.000000, 105.008309
100.000000, 92.523062
100.000000, 80.091942
100.000000, 67.714948
100.000000, 55.392081
100.000000, 43.123341
100.000000, 30.908727
100.000000, 18.748240
100.000000, 6.641881
100.000000, 354.589648
100.000000, 342.591542
100.000000, 330.647563
100.000000, 318.757712
100.000000, 306.921988
100.000000, 295.140391
100.000000, 283.412921
100.000000, 271.739579
100.000000, 260.120365
100.000000, 248.555277
100.000000, 237.044318
100.000000, 225.587486
100.000000, 214.184781
100.000000, 202.836204
100.000000, 191.541755
100.000000, 180.301433
100.000000, 169.115239
100.000000, 157.983172
100.000000, 146.905233
100.000000, 135.881422
100.000000, 124.911739
100.000000, 113.996183
100.000000, 103.134754
100.000000, 92.327454
100.000000, 81.574280
100.000000, 70.875235
100.000000, 60.230317
100.000000, 49.639526
100.000000, 39.102863
100.000000, 28.620327
100.000000, 18.191919
100.000000, 7.817638
100.000000, 357.497485
100.000000, 347.231459
100.000000, 337.019559
100.000000, 326.861788
100.000000, 316.758143
100.000000, 306.708625
100.000000, 296.713234
100.000000, 286.771970
100.000000, 276.884833
100.000000, 267.051823
100.000000, 257.272939
100.000000, 247.548182
100.000000, 237.877552
100.000000, 228.261048
100.000000, 218.698670
100.000000, 209.190419
100.000000, 199.736293
100.000000, 190.336294
100.000000, 180.990421
100.000000, 171.698673
100.000000, 162.461052
100.000000, 153.277555
100.000000, 144.148185
100.000000, 135.072940
100.000000, 126.051820
100.000000, 117.084825
100.000000, 108.171955
100.000000, 99.313210
100.000000, 90.508590
100.000000, 81.758095
100.000000, 73.061724
100.000000, 64.419478
100.000000, 55.831355
100.000000, 47.297357
100.000000, 38.817483
100.000000, 30.391733
100.000000, 22.020106
100.000000, 13.702603
100.000000, 5.439223
100.000000, 357.229966
100.000000, 349.074833
100.000000, 340.973822
100.000000, 332.926934
100.000000, 324.934168
100.000000, 316.995525
100.000000, 309.111004
100.000000, 301.280605
100.000000, 293.504329
100.000000, 285.782173
100.000000, 278.114140
100.000000, 270.500227
100.000000, 262.940436
100.000000, 255.434766
100.000000, 247.983217
100.000000, 240.585788
100.000000, 233.242479
100.000000, 225.953291
100.000000, 218.718223
100.000000, 211.537275
100.000000, 204.410447
100.000000, 197.337738
100.000000, 190.319148
100.000000, 183.354677
100.000000, 176.444326
100.000000, 169.588093
100.000000, 162.785978
100.000000, 156.037982
100.000000, 149.344104
100.000000, 142.704343
100.000000, 136.118701
100.000000, 129.587176
100.000000, 123.109768
100.000000, 116.686477
100.000000, 110.317303
100.000000, 104.002245
100.000000, 97.741304
100.000000, 91.534480
100.000000, 85.381771
100.000000, 79.283178
100.000000, 73.238700
100.000000, 67.248338
100.000000, 61.312091
100.000000, 55.429959
100.000000, 49.601941
100.000000, 43.828038
100.000000, 38.108250
100.000000, 32.442575
100.000000, 26.831014
100.000000, 21.273567
100.000000, 15.770233
100.000000, 10.321012
100.000000, 4.925904
100.000000, 359.584909
100.000000, 354.298026
100.000000, 349.065256
100.000000, 343.886597
100.000000, 338.762050
100.000000, 333.691615
100.000000, 328.675292
100.000000, 323.713079
100.000000, 318.804977
100.000000, 313.950986
100.000000, 309.151106
100.000000, 304.405336
100.000000, 299.713675
100.000000, 295.076125
100.000000, 290.492684
100.000000, 285.963352
100.000000, 281.488130
100.000000, 277.067016
100.000000, 272.700011
100.000000, 268.387115
100.000000, 264.128327
100.000000, 259.923647
100.000000, 255.773074
100.000000, 251.676610
100.000000, 247.634252
100.000000, 243.646002
100.000000, 239.711859
100.000000, 235.831822
100.000000, 232.005892
100.000000, 228.234068
100.000000, 224.516350
100.000000, 220.852738
100.000000, 217.243232
100.000000, 213.687831
100.000000, 210.186535
100.000000, 206.739344
100.000000, 203.346258
100.000000, 200.007277
100.000000, 196.722400
100.000000, 193.491627
100.000000, 190.314958
100.000000, 187.192393
100.000000, 184.123932
100.000000, 181.109573
100.000000, 178.149318
100.000000, 175.243166
100.000000, 172.391117
100.000000, 169.593170
100.000000, 166.849325
100.000000, 164.159583
100.000000, 161.523943
100.000000, 158.942404
100.000000, 156.414967
100.000000, 153.941631
100.000000, 151.522397
100.000000, 149.157264
100.000000, 146.846231
100.000000, 144.589299
100.000000, 142.386468
100.000000, 140.237737
100.000000, 138.143106
100.000000, 136.102575
100.000000, 134.116143
100.000000, 132.183812
100.000000, 130.305579
100.000000, 128.481446
100.000000, 126.711412
100.000000, 124.995477
100.000000, 123.333641
100.000000, 121.725903
100.000000, 120.172264
100.000000, 118.672723
100.000000, 117.227280
100.000000, 115.835936
100.000000, 114.498689
100.000000, 113.215539
100.000000, 111.986487
100.000000, 110.811533
100.000000, 109.690676
100.000000, 108.623915
100.000000, 107.611252
100.000000, 106.652686
100.000000, 105.748216
100.000000, 104.897843
100.000000, 104.101566
100.000000, 103.359386
100.000000, 102.671301
100.000000, 102.037313
100.000000, 101.457421
100.000000, 100.931624
100.000000, 100.459923
100.000000, 100.042318
100.000000, 99.678808
100.000000, 99.369393
100.000000, 99.114074
100.000000, 98.912850
100.000000, 98.765721
100.000000, 98.672686
100.000000, 98.633747
100.000000, 98.648902
100.000000, 98.718152
100.000000, 98.841497
100.000000, 99.018936
100.000000, 99.250469
100.000000, 99.536097
100.000000, 99.875818
100.000000, 100.269634
100.000000, 100.717544
100.000000, 101.219548
100.000000, 101.775646
100.000000, 102.385838
100.000000, 103.050123
100.000000, 103.768503
100.000000, 104.540976
100.000000, 105.367542
100.000000, 106.248202
100.000000, 107.182956
100.000000, 108.171803
100.000000, 109.214743
100.000000, 110.311777
100.000000, 111.462904
100.000000, 112.668124
100.000000, 113.927438
100.000000, 115.240845
100.000000, 116.608345
100.000000, 118.029938
100.000000, 119.505624
100.000000, 121.035404
100.000000, 122.619276
100.000000, 124.257242
100.000000, 125.949300
100.000000, 127.695452
100.000000, 129.495697
100.000000, 131.350034
100.000000, 133.258465
100.000000, 135.220989
100.000000, 137.237606
100.000000, 139.308316
100.000000, 141.433119
100.000000, 143.612015
100.000000, 145.845004
100.000000, 148.132086
100.000000, 150.473261
100.000000, 152.868530
100.000000, 155.317891
100.000000, 157.821346
100.000000, 160.378894
100.000000, 162.990535
100.000000, 165.656269
100.000000, 168.376097
100.000000, 171.150018
100.000000, 173.978033
100.000000, 176.860141
100.000000, 179.796343
100.000000, 182.786638
100.000000, 185.831026
100.000000, 188.929509
100.000000, 192.082085
100.000000, 195.288755
100.000000, 198.549519
100.000000, 201.864376
100.000000, 205.233328
100.000000, 208.656374
100.000000, 212.133514
100.000000, 215.664748
100.000000, 219.250076
100.000000, 222.889499
100.000000, 226.583016
100.000000, 230.330628
100.000000, 234.132335
100.000000, 237.988136
100.000000, 241.898032
100.000000, 245.862023
100.000000, 249.880110
100.000000, 253.952291
100.000000, 258.078568
100.000000, 262.258940
100.000000, 266.493407
100.000000, 270.781970
100.000000, 275.124629
100.000000, 279.521384
100.000000, 283.972234
100.000000, 288.477181
100.000000, 293.036224
100.000000, 297.649363
100.000000, 302.316599
100.000000, 307.037931
100.000000, 311.813360
100.000000, 316.642886
100.000000, 321.526510
100.000000, 326.464230
100.000000, 331.456047
100.000000, 336.501962
100.000000, 341.601975
100.000000, 346.756085
100.000000, 351.964294
100.000000, 357.226600
100.000000, 2.543005
100.000000, 7.913508
100.000000, 13.338109
100.000000, 18.816810
100.000000, 24.349609
100.000000, 29.936507
100.000000, 35.577505
100.000000, 41.272602
100.000000, 47.021799
100.000000, 52.825095
100.000000, 58.682491
100.000000, 64.593988
100.000000, 70.559585
100.000000, 76.579282
100.000000, 82.653080
100.000000, 88.780979
100.000000, 94.962979
100.000000, 101.199080
100.000000, 107.489282
100.000000, 113.833587
100.000000, 120.231993
100.000000, 126.684501
100.000000, 133.191112
100.000000, 139.751824
100.000000, 146.366640
100.000000, 153.035558
100.000000, 159.758580
100.000000, 166.535705
100.000000, 173.366933
100.000000, 180.252265
100.000000, 187.191701
100.000000, 194.185241
100.000000, 201.232886
100.000000, 208.334635
100.000000, 215.490488
100.000000, 222.700447
100.000000, 229.964511
100.000000, 237.282681
100.000000, 244.654956
100.000000, 252.081337
100.000000, 259.561824
100.000000, 267.096418
100.000000, 274.685118
100.000000, 282.327925
100.000000, 290.024839
100.000000, 297.775861
100.000000, 305.580990
100.000000, 313.440227
100.000000, 321.353571
100.000000, 329.321024
100.000000, 337.342586
100.000000, 345.418256
100.000000, 353.548035
100.000000, 1.731923
100.000000, 9.969921
100.000000, 18.262028
100.000000, 26.608246
100.000000, 35.008573
100.000000, 43.463011
100.000000, 51.971559
100.000000, 60.534219
100.000000, 69.150989
100.000000, 77.821871
100.000000, 86.546865
100.000000, 95.325970
100.000000, 104.159188
100.000000, 113.046518
100.000000, 121.987960
100.000000, 130.983516
100.000000, 140.033184
100.000000, 149.136966
100.000000, 158.294862
100.000000, 167.506871
100.000000, 176.772995
100.000000, 186.093233
100.000000, 195.467585
100.000000, 204.896052
100.000000, 214.378635
100.000000, 223.915333
100.000000, 233.506146
100.000000, 243.151076
100.000000, 252.850121
100.000000, 262.603283
100.000000, 272.410561
100.000000, 282.271957
100.000000, 292.187469
100.000000, 302.157099
100.000000, 312.180846
100.000000, 322.258712
100.000000, 332.390695
100.000000, 342.576797
100.000000, 352.817017
100.000000, 3.111357
100.000000, 13.459815
100.000000, 23.862393
100.000000, 34.319090
100.000000, 44.829907
100.000000, 55.394844
100.000000, 66.013902
100.000000, 76.687080
100.000000, 87.414379
100.000000, 98.195799
100.000000, 109.031340
100.000000, 119.921003
100.000000, 130.864787
100.000000, 141.862694
100.000000, 152.914723
100.000000, 164.020874
100.000000, 175.181148
100.000000, 186.395545
100.000000, 197.664066
100.000000, 208.986709
100.000000, 220.363477
100.000000, 231.794368
100.000000, 243.279383
100.000000, 254.818523
100.000000, 266.411787
100.000000, 278.059176
100.000000, 289.760690
100.000000, 301.516329
100.000000, 313.326094
100.000000, 325.189985
100.000000, 337.108001
100.000000, 349.080144
100.000000, 1.106412
100.000000, 13.186808
100.000000, 25.321330
100.000000, 37.509979
100.000000, 49.752756
100.000000, 62.049660
100.000000, 74.400691
100.000000, 86.805850
100.000000, 99.265138
100.000000, 111.778553
100.000000, 124.346097
100.000000, 136.967770
100.000000, 149.643571
100.000000, 162.373501
100.000000, 175.157561
100.000000, 187.995750
100.000000, 200.888069
100.000000, 213.834517
100.000000, 226.835096
100.000000, 239.889804
100.000000, 252.998643
100.000000, 266.161613
100.000000, 279.378713
100.000000, 292.649944
100.000000, 305.975306
100.000000, 319.354799
100.000000, 332.788424
100.000000, 346.276180
100.000000, 359.818068
100.000000, 13.414088
100.000000, 27.064240
100.000000, 40.768524
100.000000, 54.526941
100.000000, 68.339490
100.000000, 82.206172
100.000000, 96.126986
100.000000, 110.101934
100.000000, 124.131015
100.000000, 138.214229
100.000000, 152.351576
100.000000, 166.543057
100.000000, 180.788672
100.000000, 195.088420
100.000000, 209.442303
100.000000, 223.850319
100.000000, 238.312470
100.000000, 252.828755
100.000000, 267.399175
100.000000, 282.023729
100.000000, 296.702417
100.000000, 311.435241
100.000000, 326.222200
100.000000, 341.063293
100.000000, 355.958522
100.000000, 10.907886
100.000000, 25.911385
100.000000, 40.969020
100.000000, 56.080790
100.000000, 71.246696
100.000000, 86.466738
100.000000, 101.740916
100.000000, 117.069229
100.000000, 132.451678
100.000000, 147.888264
100.000000, 163.378985
100.000000, 178.923843
100.000000, 194.522837
100.000000, 210.175968
100.000000, 225.883235
100.000000, 241.644638
100.000000, 257.460178
100.000000, 273.329855
100.000000, 289.253668
100.000000, 305.231618
100.000000, 321.263705
100.000000, 337.349928
100.000000, 353.490288
100.000000, 9.684786
100.000000, 25.933420
100.000000, 42.236191
100.000000, 58.593100
100.000000, 75.004145
100.000000, 91.469327
100.000000, 107.988647
100.000000, 124.562103
100.000000, 141.189697
100.000000, 157.871428
100.000000, 174.607296
100.000000, 191.397302
100.000000, 208.241444
100.000000, 225.139724
100.000000, 242.092141
100.000000, 259.098695
100.000000, 276.159386
100.000000, 293.274215
100.000000, 310.443180
100.000000, 327.666283
100.000000, 344.943523
100.000000, 2.274900
100.000000, 19.660415
100.000000, 37.100066
100.000000, 54.593855
100.000000, 72.141781
100.000000, 89.743843
100.000000, 107.400043
100.000000, 125.110380
100.000000, 142.874853
100.000000, 160.693464
100.000000, 178.566211
100.000000, 196.493095
100.000000, 214.474116
100.000000, 232.509274
100.000000, 250.598568
100.000000, 268.741999
100.000000, 286.939566
100.000000, 305.191270
100.000000, 323.497110
100.000000, 341.857087
100.000000, 0.271200
100.000000, 18.739449
100.000000, 37.261834
100.000000, 55.838356
100.000000, 74.469013
100.000000, 93.153806
100.000000, 111.892735
100.000000, 130.685800
100.000000, 149.533001
100.000000, 168.434337
100.000000, 187.389808
100.000000, 206.399415
100.000000, 225.463157
100.000000, 244.581035
100.000000, 263.753047
100.000000, 282.979195
100.000000, 302.259477
100.000000, 321.593894
100.000000, 340.982446
100.000000, 0.425132
100.000000, 19.921953
100.000000, 39.472908
100.000000, 59.077998
100.000000, 78.737221
100.000000, 98.450578
100.000000, 118.218070
100.000000, 138.039695
100.000000, 157.915453
100.000000, 177.845345
100.000000, 197.829371
100.000000, 217.867529
100.000000, 237.959821
100.000000, 258.106245
100.000000, 278.306803
100.000000, 298.561493
100.000000, 318.870316
100.000000, 339.233271
100.000000, 359.650358
100.000000, 20.121577
100.000000, 40.646928
100.000000, 61.226412
100.000000, 81.860026
100.000000, 102.547773
100.000000, 123.289650
100.000000, 144.085659
100.000000, 164.935799
100.000000, 185.840070
100.000000, 206.798471
100.000000, 227.811004
100.000000, 248.877666
100.000000, 269.998459
100.000000, 291.173382
100.000000, 312.402435
100.000000, 333.685618
100.000000, 355.022930
100.000000, 16.414372
100.000000, 37.859943
100.000000, 59.359644
100.000000, 80.913473
100.000000, 102.521431
100.000000, 124.183518
100.000000, 145.899733
100.000000, 167.670077
100.000000, 189.494549
100.000000, 211.373148
100.000000, 233.305876
100.000000, 255.292731
100.000000, 277.333714
100.000000, 299.428824
100.000000, 321.578061
100.000000, 343.781425
100.000000, 6.038916
100.000000, 28.350534
100.000000, 50.716278
100.000000, 73.136149
100.000000, 95.610145
100.000000, 118.138268
100.000000, 140.720516
100.000000, 163.356890
100.000000, 186.047390
100.000000, 208.792014
100.000000, 231.590764
100.000000, 254.443639
100.000000, 277.350639
100.000000, 300.311764
100.000000, 323.327012
100.000000, 346.396386
100.000000, 9.519883
100.000000, 32.697504
100.000000, 55.929250
100.000000, 79.215119
100.000000, 102.555111
100.000000, 125.949227
100.000000, 149.397466
100.000000, 172.899828
100.000000, 196.456313
100.000000, 220.066921
100.000000, 243.731651
100.000000, 267.450504
100.000000, 291.223479
100.000000, 315.050576
100.000000, 338.931796
100.000000, 2.867137
100.000000, 26.856600
100.000000, 50.900184
100.000000, 74.997890
100.000000, 99.149718
100.000000, 123.355666
100.000000, 147.615736
100.000000, 171.929926
100.000000, 196.298237
100.000000, 220.720669
100.000000, 245.197222
100.000000, 269.727895
100.000000, 294.312688
100.000000, 318.951601
100.000000, 343.644635
100.000000, 8.391788
100.000000, 33.193061
100.000000, 58.048454
100.000000, 82.957967
100.000000, 107.921599
100.000000, 132.939351
100.000000, 158.011222
100.000000, 183.137212
100.000000, 208.317321
100.000000, 233.551549
100.000000, 258.839897
100.000000, 284.182363
100.000000, 309.578948
100.000000, 335.029652
100.000000, 0.534474
100.000000, 26.093415
100.000000, 51.706474
100.000000, 77.373652
100.000000, 103.094949
100.000000, 128.870363
100.000000, 154.699896
100.000000, 180.583547
100.000000, 206.521317
100.000000, 232.513204
100.000000, 258.559210
100.000000, 284.659333
100.000000, 310.813575
100.000000, 337.021934
100.000000, 3.284412
100.000000, 29.601007
100.000000, 55.971721
100.000000, 82.396552
100.000000, 108.875501
100.000000, 135.408568
100.000000, 161.995753
100.000000, 188.637056
100.000000, 215.332477
100.000000, 242.082015
100.000000, 268.885672
100.000000, 295.743446
100.000000, 322.655338
100.000000, 349.621349
100.000000, 16.641477
100.000000, 43.715723
100.000000, 70.844088
100.000000, 98.026570
100.000000, 125.263171
100.000000, 152.553889
100.000000, 179.898727
100.000000, 207.297682
100.000000, 234.750756
100.000000, 262.257948
100.000000, 289.819258
100.000000, 317.434688
100.000000, 345.104236
100.000000, 12.827902
100.000000, 40.605688
100.000000, 68.437592
100.000000, 96.323615
100.000000, 124.263758
100.000000, 152.258020
100.000000, 180.306401
100.000000, 208.408902
100.000000, 236.565522
100.000000, 264.776262
100.000000, 293.041121
100.000000, 321.360101
100.000000, 349.733201
100.000000, 18.160421
100.000000, 46.641761
100.000000, 75.177222
100.000000, 103.766804
100.000000, 132.410506
100.000000, 161.108330
100.000000, 189.860274
100.000000, 218.666340
100.000000, 247.526528
100.000000, 276.440837
100.000000, 305.409268
100.000000, 334.431822
100.000000, 3.508497
100.000000, 32.639295
100.000000, 61.824216
100.000000, 91.063260
100.000000, 120.356427
100.000000, 149.703717
100.000000, 179.105130
100.000000, 208.560668
100.000000, 238.070329
100.000000, 267.634115
100.000000, 297.252025
100.000000, 326.924059
100.000000, 356.650219
100.000000, 26.430504
100.000000, 56.264914
100.000000, 86.153450
100.000000, 116.096112
100.000000, 146.092900
100.000000, 176.143815
100.000000, 206.248856
100.000000, 236.408024
100.000000, 266.621320
100.000000, 296.888743
100.000000, 327.210293
100.000000, 357.585972
100.000000, 28.015780
100.000000, 58.499716
100.000000, 89.037781
100.000000, 119.629975
100.000000, 150.276299
100.000000, 180.976752
100.000000, 211.731336
100.000000, 242.540050
100.000000, 273.402895
100.000000, 304.319871
100.000000, 335.290979
100.000000, 6.316218
100.000000, 37.395588
100.000000, 68.529092
100.000000, 99.716728
100.000000, 130.958496
100.000000, 162.254398
100.000000, 193.604434
100.000000, 225.008603
100.000000, 256.466907
100.000000, 287.979345
100.000000, 319.545917
100.000000, 351.166625
100.000000, 22.841469
100.000000, 54.570448
100.000000, 86.353563
100.000000, 118.190814
100.000000, 150.082203
100.000000, 182.027728
100.000000, 214.027390
100.000000, 246.081190
100.000000, 278.189129
100.000000, 310.351205
100.000000, 342.567420
100.000000, 14.837773
100.000000, 47.162266
100.000000, 79.540898
100.000000, 111.973670
100.000000, 144.460582
100.000000, 177.001635
100.000000, 209.596828
100.000000, 242.246161
100.000000, 274.949636
100.000000, 307.707253
100.000000, 340.519011
100.000000, 13.384911
100.000000, 46.304953
100.000000, 79.279138
100.000000, 112.307465
100.000000, 145.389935
100.000000, 178.526549
100.000000, 211.717306
100.000000, 244.962206
100.000000, 278.261251
100.000000, 311.614439
100.000000, 345.021772
100.000000, 18.483249
100.000000, 51.998870
100.000000, 85.568637
100.000000, 119.192548
100.000000, 152.870605
100.000000, 186.602806
100.000000, 220.389153
100.000000, 254.229646
100.000000, 288.124284
100.000000, 322.073068
100.000000, 356.075998
100.000000, 30.133074
100.000000, 64.244295
100.000000, 98.409663
100.000000, 132.629176
100.000000, 166.902836
100.000000, 201.230641
100.000000, 235.612593
100.000000, 270.048691
100.000000, 304.538935
100.000000, 339.083325
100.000000, 13.681860
100.000000, 48.334542
100.000000, 83.041369
100.000000, 117.802342
100.000000, 152.617460
100.000000, 187.486724
100.000000, 222.410132
100.000000, 257.387686
100.000000, 292.419384
100.000000, 327.505227
100.000000, 2.645214
100.000000, 37.839345
100.000000, 73.087620
100.000000, 108.390038
100.000000, 143.746599
100.000000, 179.157303
100.000000, 214.622149
100.000000, 250.141137
100.000000, 285.714266
100.000000, 321.341536
100.000000, 357.022946
100.000000, 32.758496
100.000000, 68.548186
100.000000, 104.392015
100.000000, 140.289981
100.000000, 176.242085
100.000000, 212.248326
100.000000, 248.308703
100.000000, 284.423216
100.000000, 320.591863
100.000000, 356.814644
100.000000, 33.091558
100.000000, 69.422604
100.000000, 105.807781
100.000000, 142.247088
100.000000, 178.740525
100.000000, 215.288090
100.000000, 251.889783
100.000000, 288.545601
100.000000, 325.255545
100.000000, 2.019612
100.000000, 38.837803
100.000000, 75.710114
100.000000, 112.636546
100.000000, 149.617096
100.000000, 186.651764
100.000000, 223.740547
100.000000, 260.883445
100.000000, 298.080456
100.000000, 335.331578
100.000000, 12.636810
100.000000, 49.996151
100.000000, 87.409597
100.000000, 124.877148
100.000000, 162.398802
100.000000, 199.974556
100.000000, 237.604409
100.000000, 275.288360
100.000000, 313.026405
100.000000, 350.818543
100.000000, 28.664771
100.000000, 66.565088
100.000000, 104.519491
100.000000, 142.527978
100.000000, 180.590546
100.000000, 218.707193
100.000000, 256.877916
100.000000, 295.102713
100.000000, 333.381581
100.000000, 11.714517
100.000000, 50.101519
100.000000, 88.542583
100.000000, 127.037707
100.000000, 165.586888
100.000000, 204.190122
100.000000, 242.847407
100.000000, 281.558739
100.000000, 320.324115
100.000000, 359.143531
100.000000, 38.016984
100.000000, 76.944470
100.000000, 115.925987
100.000000, 154.961529
100.000000, 194.051093
100.000000, 233.194676
100.000000, 272.392273
100.000000, 311.643881
100.000000, 350.949494
100.000000, 30.309110
100.000000, 69.722722
100.000000, 109.190328
100.000000, 148.711923
100.000000, 188.287501
100.000000, 227.917059
100.000000, 267.600590
100.000000, 307.338092
100.000000, 347.129557
100.000000, 26.974982
100.000000, 66.874361
100.000000, 106.827688
100.000000, 146.834959
100.000000, 186.896167
100.000000, 227.011307
100.000000, 267.180374
100.000000, 307.403360
100.000000, 347.680261
100.000000, 28.011070
100.000000, 68.395780
100.000000, 108.834386
100.000000, 149.326881
100.000000, 189.873258
100.000000, 230.473511
100.000000, 271.127632
100.000000, 311.835614
100.000000, 352.597452
100.000000, 33.413136
100.000000, 74.282660
100.000000, 115.206016
100.000000, 156.183197
100.000000, 197.214194
100.000000, 238.299000
100.000000, 279.437606
100.000000, 320.630005
100.000000, 1.876188
100.000000, 43.176146
100.000000, 84.529870
100.000000, 125.937352
100.000000, 167.398583
100.000000, 208.913553
100.000000, 250.482253
100.000000, 292.104674
100.000000, 333.780806
100.000000, 15.510639
100.000000, 57.294162
100.000000, 99.131367
100.000000, 141.022242
100.000000, 182.966777
100.000000, 224.964962
100.000000, 267.016785
100.000000, 309.122235
100.000000, 351.281301
100.000000, 33.493971
100.000000, 75.760235
100.000000, 118.080080
100.000000, 160.453494
100.000000, 202.880465
100.000000, 245.360980
100.000000, 287.895027
100.000000, 330.482594
100.000000, 13.123666
100.000000, 55.818231
100.000000, 98.566276
100.000000, 141.367786
100.000000, 184.222749
100.000000, 227.131149
100.000000, 270.092973
100.000000, 313.108205
100.000000, 356.176832
100.000000, 39.298838
100.000000, 82.474209
100.000000, 125.702927
100.000000, 168.984979
100.000000, 212.320348
100.000000, 255.709018
100.000000, 299.150972
100.000000, 342.646194
100.000000, 26.194667
100.000000, 69.796373
100.000000, 113.451296
100.000000, 157.159418
100.000000, 200.920720
100.000000, 244.735185
100.000000, 288.602794
100.000000, 332.523529
100.000000, 16.497369
100.000000, 60.524297
100.000000, 104.604292
100.000000, 148.737335
100.000000, 192.923406
100.000000, 237.162483
100.000000, 281.454547
100.000000, 325.799576
100.000000, 10.197549
100.000000, 54.648445
100.000000, 99.152241
100.000000, 143.708916
100.000000, 188.318446
100.000000, 232.980809
100.000000, 277.695982
100.000000, 322.463941
100.000000, 7.284663
100.000000, 52.158123
100.000000, 97.084296
100.000000, 142.063159
100.000000, 187.094685
100.000000, 232.178850
100.000000, 277.315627
100.000000, 322.504990
100.000000, 7.746913
100.000000, 53.041369
100.000000, 98.388330
100.000000, 143.787769
100.000000, 189.239658
100.000000, 234.743968
100.000000, 280.300672
100.000000, 325.909738
100.000000, 11.571139
100.000000, 57.284844
100.000000, 103.050822
100.000000, 148.869044
100.000000, 194.739477
100.000000, 240.662091
100.000000, 286.636854
100.000000, 332.663733
100.000000, 18.742695
100.000000, 64.873707
100.000000, 111.056737
100.000000, 157.291748
100.000000, 203.578708
100.000000, 249.917581
100.000000, 296.308333
100.000000, 342.750926
100.000000, 29.245325
100.000000, 75.791493
100.000000, 122.389393
100.000000, 169.038988
100.000000, 215.740238
100.000000, 262.493107
100.000000, 309.297554
100.000000, 356.153540
100.000000, 43.061025
100.000000, 90.019968
100.000000, 137.030329
100.000000, 184.092066
100.000000, 231.205136
100.000000, 278.369499
100.000000, 325.585109
100.000000, 12.851924
100.000000, 60.169899
100.000000, 107.538991
100.000000, 154.959153
100.000000, 202.430340
100.000000, 249.952506
100.000000, 297.525603
100.000000, 345.149585
100.000000, 32.824403
100.000000, 80.550010
100.000000, 128.326355
100.000000, 176.153389
100.000000, 224.031062
100.000000, 271.959323
100.000000, 319.938121
100.000000, 7.967403
100.000000, 56.047117
100.000000, 104.177209
100.000000, 152.357626
100.000000, 200.588313
100.000000, 248.869215
100.000000, 297.200276
100.000000, 345.581440
100.000000, 34.012649
100.000000, 82.493846
99.987413, 131.024972
99.949654, 179.605969
99.886734, 228.236776
99.798668, 276.917333
99.685478, 325.647580
99.547192, 14.427453
99.383846, 63.256892
99.195481, 112.135832
98.982144, 161.064209
98.743889, 210.041960
98.480775, 259.069018
98.192870, 308.145318
97.880245, 357.270793
97.542979, 46.445375
97.181157, 95.668996
96.794870, 144.941586
96.384216, 194.263077
95.949297, 243.633397
95.490224, 293.052476
95.007112, 342.520240
94.500082, 32.036617
93.969262, 81.601534
93.414786, 131.214916
92.836793, 180.876687
92.235429, 230.586771
91.610846, 280.345091
90.963200, 330.151570
90.292654, 20.006129
89.599377, 69.908688
88.883545, 119.859167
88.145336, 169.857485
87.384938, 219.903560
86.602540, 269.997308
85.798341, 320.138647
84.972543, 10.327490
84.125353, 60.563754
83.256985, 110.847350
82.367658, 161.178192
81.457595, 211.556191
80.527026, 261.981258
79.576184, 312.453303
78.605309, 2.972235
77.614646, 53.537961
76.604444, 104.150388
75.574957, 154.809423
74.526445, 205.514970
73.459171, 256.266934
72.373404, 307.065216
71.269417, 357.909721
70.147489, 48.800347
69.007901, 99.736996
67.850941, 150.719566
66.676900, 201.747955
65.486073, 252.822061
64.278761, 303.941778
63.055267, 355.107002
61.815899, 46.317626
60.560969, 97.573543
59.290793, 148.874644
58.005691, 200.220821
56.705986, 251.611961
55.392006, 303.047954
54.064082, 354.528687
52.722547, 46.054045
51.367739, 97.623913
50.000000, 149.238176
48.619674, 200.896715
47.227107, 252.599411
45.822652, 304.346146
44.406661, 356.136798
42.979491, 47.971244
41.541501, 99.849362
40.093054, 151.771027
38.634513, 203.736112
37.166246, 255.744491
35.688622, 307.796036
34.202014, 359.890616
32.706796, 52.028101
31.203345, 104.208359
29.692038, 156.431257
28.173256, 208.696659
26.647381, 261.004429
25.114799, 313.354431
23.575894, 5.746526
22.031053, 58.180573
20.480667, 110.656431
18.925124, 163.173958
17.364818, 215.733010
15.800140, 268.333440
14.231484, 320.975103
12.659245, 13.657849
11.083820, 66.381530
9.505604, 119.145994
7.924996, 171.951088
6.342392, 224.796659
4.758192, 277.682552
3.172793, 330.608609
1.586596, 23.574672
0.000000, 76.580581
##END=
