##TITLE= CHORUS_2nd_300kHz1.25m5s1250
##JCAMP-DX= 5.00 Bruker JCAMP library
##DATA TYPE= Shape Data
##ORIGIN= Bruker BioSpin GmbH
##OWNER= <M.FOROOZANDEH>
##DATE= 29-Jun-2018
##TIME= 15:52:24
##$SHAPE_PARAMETERS= Type: SmoothedChirp ; Total Sweep-Width [kHz] 300 ; Length of Pulse [msec] 1.25 ; % to be smoothed 5
##MINX= 0
##MAXX= 100
##MINY= 0
##MAXY= 359.3917
##$SHAPE_EXMODE= Adiabatic
##$SHAPE_TOTROT= 1.800000E02
##$SHAPE_TYPE= Inversion
##$SHAPE_USER_DEF= 
##$SHAPE_REPHFAC= 
##$SHAPE_BWFAC= 2.735620E02
##$SHAPE_BWFAC50= 
##$SHAPE_INTEGFAC= 3.236043E-02
##$SHAPE_MODE= 0
##NPOINTS= 1250
##XYPOINTS= (XY..XY)
0.000000, 314.989183
2.574791, 260.989217
5.147875, 207.075790
7.717546, 153.248902
10.282100, 99.508552
12.839836, 45.854740
15.389058, 352.287466
17.928076, 298.806732
20.455207, 245.412535
22.968774, 192.104877
25.467112, 138.883757
27.948563, 85.749176
30.411483, 32.701133
32.854238, 339.739628
35.275209, 286.864662
37.672789, 234.076235
40.045391, 181.374345
42.391439, 128.758994
44.709379, 76.230182
46.997674, 23.787908
49.254807, 331.432172
51.479280, 279.162975
53.669619, 226.980316
55.824372, 174.884196
57.942110, 122.874614
60.021428, 70.951570
62.060948, 19.115065
64.059318, 327.365098
66.015212, 275.701669
67.927334, 224.124779
69.794415, 172.634428
71.615219, 121.230615
73.388537, 69.913340
75.113193, 18.682603
76.788045, 327.538405
78.411981, 276.480746
79.983924, 225.509625
81.502834, 174.625042
82.967701, 123.826998
84.377556, 73.115492
85.731463, 22.490524
87.028524, 331.952095
88.267880, 281.500204
89.448708, 231.134852
90.570226, 180.856038
91.631690, 130.663762
92.632397, 80.558025
93.571682, 30.538827
94.448923, 340.606166
95.263538, 290.760044
96.014987, 241.000461
96.702772, 191.327416
97.326437, 141.740909
97.885569, 92.240941
98.379795, 42.827511
98.808790, 353.500620
99.172267, 304.260266
99.469988, 255.106452
99.701753, 206.039176
99.867409, 157.058438
99.966847, 108.164238
100.000000, 59.356577
100.000000, 10.635455
100.000000, 322.000871
100.000000, 273.452825
100.000000, 224.991317
100.000000, 176.616348
100.000000, 128.327918
100.000000, 80.126026
100.000000, 32.010672
100.000000, 343.981856
100.000000, 296.039579
100.000000, 248.183841
100.000000, 200.414641
100.000000, 152.731979
100.000000, 105.135856
100.000000, 57.626271
100.000000, 10.203224
100.000000, 322.866716
100.000000, 275.616746
100.000000, 228.453315
100.000000, 181.376422
100.000000, 134.386068
100.000000, 87.482252
100.000000, 40.664974
100.000000, 353.934235
100.000000, 307.290034
100.000000, 260.732371
100.000000, 214.261247
100.000000, 167.876662
100.000000, 121.578614
100.000000, 75.367106
100.000000, 29.242135
100.000000, 343.203703
100.000000, 297.251809
100.000000, 251.386454
100.000000, 205.607637
100.000000, 159.915359
100.000000, 114.309619
100.000000, 68.790417
100.000000, 23.357754
100.000000, 338.011629
100.000000, 292.752043
100.000000, 247.578995
100.000000, 202.492486
100.000000, 157.492514
100.000000, 112.579082
100.000000, 67.752187
100.000000, 23.011831
100.000000, 338.358014
100.000000, 293.790735
100.000000, 249.309994
100.000000, 204.915792
100.000000, 160.608128
100.000000, 116.387002
100.000000, 72.252415
100.000000, 28.204367
100.000000, 344.242856
100.000000, 300.367884
100.000000, 256.579451
100.000000, 212.877556
100.000000, 169.262199
100.000000, 125.733381
100.000000, 82.291101
100.000000, 38.935360
100.000000, 355.666157
100.000000, 312.483492
100.000000, 269.387366
100.000000, 226.377778
100.000000, 183.454729
100.000000, 140.618218
100.000000, 97.868245
100.000000, 55.204811
100.000000, 12.627915
100.000000, 330.137558
100.000000, 287.733739
100.000000, 245.416458
100.000000, 203.185716
100.000000, 161.041512
100.000000, 118.983847
100.000000, 77.012720
100.000000, 35.128131
100.000000, 353.330081
100.000000, 311.618569
100.000000, 269.993596
100.000000, 228.455161
100.000000, 187.003265
100.000000, 145.637907
100.000000, 104.359087
100.000000, 63.166806
100.000000, 22.061063
100.000000, 341.041858
100.000000, 300.109192
100.000000, 259.263065
100.000000, 218.503475
100.000000, 177.830424
100.000000, 137.243912
100.000000, 96.743938
100.000000, 56.330502
100.000000, 16.003605
100.000000, 335.763246
100.000000, 295.609426
100.000000, 255.542144
100.000000, 215.561400
100.000000, 175.667195
100.000000, 135.859528
100.000000, 96.138400
100.000000, 56.503810
100.000000, 16.955758
100.000000, 337.494245
100.000000, 298.119270
100.000000, 258.830834
100.000000, 219.628936
100.000000, 180.513577
100.000000, 141.484755
100.000000, 102.542473
100.000000, 63.686728
100.000000, 24.917522
100.000000, 346.234855
100.000000, 307.638726
100.000000, 269.129135
100.000000, 230.706083
100.000000, 192.369569
100.000000, 154.119594
100.000000, 115.956156
100.000000, 77.879258
100.000000, 39.888898
100.000000, 1.985076
100.000000, 324.167792
100.000000, 286.437047
100.000000, 248.792841
100.000000, 211.235172
100.000000, 173.764042
100.000000, 136.379451
100.000000, 99.081398
100.000000, 61.869883
100.000000, 24.744907
100.000000, 347.706469
100.000000, 310.754570
100.000000, 273.889209
100.000000, 237.110386
100.000000, 200.418102
100.000000, 163.812357
100.000000, 127.293149
100.000000, 90.860480
100.000000, 54.514350
100.000000, 18.254758
100.000000, 342.081704
100.000000, 305.995188
100.000000, 269.995212
100.000000, 234.081773
100.000000, 198.254873
100.000000, 162.514511
100.000000, 126.860688
100.000000, 91.293403
100.000000, 55.812657
100.000000, 20.418448
100.000000, 345.110779
100.000000, 309.889648
100.000000, 274.755055
100.000000, 239.707000
100.000000, 204.745484
100.000000, 169.870506
100.000000, 135.082067
100.000000, 100.380166
100.000000, 65.764804
100.000000, 31.235980
100.000000, 356.793694
100.000000, 322.437947
100.000000, 288.168738
100.000000, 253.986068
100.000000, 219.889936
100.000000, 185.880342
100.000000, 151.957287
100.000000, 118.120770
100.000000, 84.370792
100.000000, 50.707352
100.000000, 17.130451
100.000000, 343.640087
100.000000, 310.236263
100.000000, 276.918976
100.000000, 243.688228
100.000000, 210.544019
100.000000, 177.486348
100.000000, 144.515215
100.000000, 111.630621
100.000000, 78.832565
100.000000, 46.121047
100.000000, 13.496068
100.000000, 340.957628
100.000000, 308.505725
100.000000, 276.140361
100.000000, 243.861536
100.000000, 211.669249
100.000000, 179.563500
100.000000, 147.544290
100.000000, 115.611618
100.000000, 83.765485
100.000000, 52.005890
100.000000, 20.332833
100.000000, 348.746315
100.000000, 317.246335
100.000000, 285.832894
100.000000, 254.505991
100.000000, 223.265626
100.000000, 192.111800
100.000000, 161.044512
100.000000, 130.063763
100.000000, 99.169552
100.000000, 68.361879
100.000000, 37.640745
100.000000, 7.006149
100.000000, 336.458092
100.000000, 305.996573
100.000000, 275.621593
100.000000, 245.333150
100.000000, 215.131247
100.000000, 185.015881
100.000000, 154.987054
100.000000, 125.044766
100.000000, 95.189016
100.000000, 65.419804
100.000000, 35.737131
100.000000, 6.140996
100.000000, 336.631400
100.000000, 307.208342
100.000000, 277.871822
100.000000, 248.621841
100.000000, 219.458398
100.000000, 190.381493
100.000000, 161.391127
100.000000, 132.487300
100.000000, 103.670010
100.000000, 74.939260
100.000000, 46.295047
100.000000, 17.737373
100.000000, 349.266238
100.000000, 320.881640
100.000000, 292.583582
100.000000, 264.372061
100.000000, 236.247079
100.000000, 208.208636
100.000000, 180.256731
100.000000, 152.391364
100.000000, 124.612536
100.000000, 96.920246
100.000000, 69.314494
100.000000, 41.795281
100.000000, 14.362606
100.000000, 347.016470
100.000000, 319.756872
100.000000, 292.583812
100.000000, 265.497291
100.000000, 238.497309
100.000000, 211.583864
100.000000, 184.756958
100.000000, 158.016591
100.000000, 131.362762
100.000000, 104.795471
100.000000, 78.314719
100.000000, 51.920505
100.000000, 25.612830
100.000000, 359.391693
100.000000, 333.257094
100.000000, 307.209034
100.000000, 281.247512
100.000000, 255.372529
100.000000, 229.584084
100.000000, 203.882177
100.000000, 178.266809
100.000000, 152.737979
100.000000, 127.295688
100.000000, 101.939935
100.000000, 76.670720
100.000000, 51.488044
100.000000, 26.391906
100.000000, 1.382307
100.000000, 336.459246
100.000000, 311.622723
100.000000, 286.872739
100.000000, 262.209293
100.000000, 237.632386
100.000000, 213.142017
100.000000, 188.738187
100.000000, 164.420895
100.000000, 140.190141
100.000000, 116.045926
100.000000, 91.988249
100.000000, 68.017110
100.000000, 44.132510
100.000000, 20.334449
100.000000, 356.622925
100.000000, 332.997940
100.000000, 309.459494
100.000000, 286.007586
100.000000, 262.642216
100.000000, 239.363385
100.000000, 216.171092
100.000000, 193.065338
100.000000, 170.046122
100.000000, 147.113444
100.000000, 124.267305
100.000000, 101.507704
100.000000, 78.834642
100.000000, 56.248118
100.000000, 33.748132
100.000000, 11.334685
100.000000, 349.007776
100.000000, 326.767406
100.000000, 304.613574
100.000000, 282.546280
100.000000, 260.565525
100.000000, 238.671309
100.000000, 216.863630
100.000000, 195.142490
100.000000, 173.507889
100.000000, 151.959826
100.000000, 130.498301
100.000000, 109.123315
100.000000, 87.834867
100.000000, 66.632957
100.000000, 45.517586
100.000000, 24.488754
100.000000, 3.546459
100.000000, 342.690703
100.000000, 321.921486
100.000000, 301.238807
100.000000, 280.642666
100.000000, 260.133064
100.000000, 239.710000
100.000000, 219.373475
100.000000, 199.123488
100.000000, 178.960039
100.000000, 158.883129
100.000000, 138.892757
100.000000, 118.988924
100.000000, 99.171629
100.000000, 79.440872
100.000000, 59.796654
100.000000, 40.238974
100.000000, 20.767833
100.000000, 1.383230
100.000000, 342.085165
100.000000, 322.873639
100.000000, 303.748651
100.000000, 284.710202
100.000000, 265.758291
100.000000, 246.892919
100.000000, 228.114085
100.000000, 209.421789
100.000000, 190.816032
100.000000, 172.296813
100.000000, 153.864132
100.000000, 135.517990
100.000000, 117.258386
100.000000, 99.085321
100.000000, 80.998794
100.000000, 62.998806
100.000000, 45.085356
100.000000, 27.258444
100.000000, 9.518071
100.000000, 351.864236
100.000000, 334.296940
100.000000, 316.816182
100.000000, 299.421962
100.000000, 282.114281
100.000000, 264.893138
100.000000, 247.758533
100.000000, 230.710467
100.000000, 213.748940
100.000000, 196.873951
100.000000, 180.085500
100.000000, 163.383588
100.000000, 146.768214
100.000000, 130.239378
100.000000, 113.797081
100.000000, 97.441322
100.000000, 81.172102
100.000000, 64.989420
100.000000, 48.893276
100.000000, 32.883671
100.000000, 16.960605
100.000000, 1.124076
100.000000, 345.374086
100.000000, 329.710635
100.000000, 314.133722
100.000000, 298.643347
100.000000, 283.239511
100.000000, 267.922213
100.000000, 252.691453
100.000000, 237.547232
100.000000, 222.489550
100.000000, 207.518405
100.000000, 192.633800
100.000000, 177.835732
100.000000, 163.124203
100.000000, 148.499213
100.000000, 133.960760
100.000000, 119.508846
100.000000, 105.143471
100.000000, 90.864634
100.000000, 76.672335
100.000000, 62.566575
100.000000, 48.547353
100.000000, 34.614670
100.000000, 20.768525
100.000000, 7.008919
100.000000, 353.335850
100.000000, 339.749321
100.000000, 326.249329
100.000000, 312.835876
100.000000, 299.508962
100.000000, 286.268586
100.000000, 273.114748
100.000000, 260.047449
100.000000, 247.066688
100.000000, 234.172465
100.000000, 221.364781
100.000000, 208.643635
100.000000, 196.009028
100.000000, 183.460959
100.000000, 170.999429
100.000000, 158.624437
100.000000, 146.335983
100.000000, 134.134068
100.000000, 122.018691
100.000000, 109.989853
100.000000, 98.047553
100.000000, 86.191791
100.000000, 74.422568
100.000000, 62.739883
100.000000, 51.143736
100.000000, 39.634128
100.000000, 28.211059
100.000000, 16.874528
100.000000, 5.624535
100.000000, 354.461080
100.000000, 343.384164
100.000000, 332.393787
100.000000, 321.489948
100.000000, 310.672647
100.000000, 299.941885
100.000000, 289.297661
100.000000, 278.739975
100.000000, 268.268828
100.000000, 257.884219
100.000000, 247.586149
100.000000, 237.374617
100.000000, 227.249624
100.000000, 217.211168
100.000000, 207.259252
100.000000, 197.393873
100.000000, 187.615034
100.000000, 177.922732
100.000000, 168.316969
100.000000, 158.797744
100.000000, 149.365058
100.000000, 140.018910
100.000000, 130.759301
100.000000, 121.586230
100.000000, 112.499697
100.000000, 103.499703
100.000000, 94.586247
100.000000, 85.759330
100.000000, 77.018951
100.000000, 68.365110
100.000000, 59.797808
100.000000, 51.317044
100.000000, 42.922819
100.000000, 34.615132
100.000000, 26.393983
100.000000, 18.259373
100.000000, 10.211301
100.000000, 2.249768
100.000000, 354.374773
100.000000, 346.586316
100.000000, 338.884398
100.000000, 331.269018
100.000000, 323.740177
100.000000, 316.297874
100.000000, 308.942110
100.000000, 301.672884
100.000000, 294.490196
100.000000, 287.394047
100.000000, 280.384436
100.000000, 273.461363
100.000000, 266.624829
100.000000, 259.874833
100.000000, 253.211376
100.000000, 246.634457
100.000000, 240.144077
100.000000, 233.740235
100.000000, 227.422931
100.000000, 221.192166
100.000000, 215.047939
100.000000, 208.990251
100.000000, 203.019101
100.000000, 197.134489
100.000000, 191.336416
100.000000, 185.624881
100.000000, 179.999885
100.000000, 174.461427
100.000000, 169.009507
100.000000, 163.644126
100.000000, 158.365283
100.000000, 153.172979
100.000000, 148.067213
100.000000, 143.047985
100.000000, 138.115296
100.000000, 133.269145
100.000000, 128.509533
100.000000, 123.836459
100.000000, 119.249924
100.000000, 114.749926
100.000000, 110.336468
100.000000, 106.009547
100.000000, 101.769166
100.000000, 97.615322
100.000000, 93.548017
100.000000, 89.567250
100.000000, 85.673022
100.000000, 81.865332
100.000000, 78.144181
100.000000, 74.509568
100.000000, 70.961493
100.000000, 67.499957
100.000000, 64.124959
100.000000, 60.836499
100.000000, 57.634578
100.000000, 54.519196
100.000000, 51.490352
100.000000, 48.548046
100.000000, 45.692278
100.000000, 42.923049
100.000000, 40.240359
100.000000, 37.644207
100.000000, 35.134593
100.000000, 32.711517
100.000000, 30.374981
100.000000, 28.124982
100.000000, 25.961522
100.000000, 23.884600
100.000000, 21.894217
100.000000, 19.990372
100.000000, 18.173065
100.000000, 16.442297
100.000000, 14.798067
100.000000, 13.240376
100.000000, 11.769223
100.000000, 10.384609
100.000000, 9.086533
100.000000, 7.874995
100.000000, 6.749996
100.000000, 5.711535
100.000000, 4.759612
100.000000, 3.894228
100.000000, 3.115383
100.000000, 2.423075
100.000000, 1.817307
100.000000, 1.298076
100.000000, 0.865384
100.000000, 0.519230
100.000000, 0.259615
100.000000, 0.086538
100.000000, 0.000000
100.000000, 0.000000
100.000000, 0.086538
100.000000, 0.259615
100.000000, 0.519230
100.000000, 0.865384
100.000000, 1.298076
100.000000, 1.817307
100.000000, 2.423075
100.000000, 3.115383
100.000000, 3.894228
100.000000, 4.759612
100.000000, 5.711535
100.000000, 6.749996
100.000000, 7.874995
100.000000, 9.086533
100.000000, 10.384609
100.000000, 11.769223
100.000000, 13.240376
100.000000, 14.798067
100.000000, 16.442297
100.000000, 18.173065
100.000000, 19.990372
100.000000, 21.894217
100.000000, 23.884600
100.000000, 25.961522
100.000000, 28.124982
100.000000, 30.374981
100.000000, 32.711517
100.000000, 35.134593
100.000000, 37.644207
100.000000, 40.240359
100.000000, 42.923049
100.000000, 45.692278
100.000000, 48.548046
100.000000, 51.490352
100.000000, 54.519196
100.000000, 57.634578
100.000000, 60.836499
100.000000, 64.124959
100.000000, 67.499957
100.000000, 70.961493
100.000000, 74.509568
100.000000, 78.144181
100.000000, 81.865332
100.000000, 85.673022
100.000000, 89.567250
100.000000, 93.548017
100.000000, 97.615322
100.000000, 101.769166
100.000000, 106.009547
100.000000, 110.336468
100.000000, 114.749926
100.000000, 119.249924
100.000000, 123.836459
100.000000, 128.509533
100.000000, 133.269145
100.000000, 138.115296
100.000000, 143.047985
100.000000, 148.067213
100.000000, 153.172979
100.000000, 158.365283
100.000000, 163.644126
100.000000, 169.009507
100.000000, 174.461427
100.000000, 179.999885
100.000000, 185.624881
100.000000, 191.336416
100.000000, 197.134489
100.000000, 203.019101
100.000000, 208.990251
100.000000, 215.047939
100.000000, 221.192166
100.000000, 227.422931
100.000000, 233.740235
100.000000, 240.144077
100.000000, 246.634457
100.000000, 253.211376
100.000000, 259.874833
100.000000, 266.624829
100.000000, 273.461363
100.000000, 280.384436
100.000000, 287.394047
100.000000, 294.490196
100.000000, 301.672884
100.000000, 308.942110
100.000000, 316.297874
100.000000, 323.740177
100.000000, 331.269018
100.000000, 338.884398
100.000000, 346.586316
100.000000, 354.374773
100.000000, 2.249768
100.000000, 10.211301
100.000000, 18.259373
100.000000, 26.393983
100.000000, 34.615132
100.000000, 42.922819
100.000000, 51.317044
100.000000, 59.797808
100.000000, 68.365110
100.000000, 77.018951
100.000000, 85.759330
100.000000, 94.586247
100.000000, 103.499703
100.000000, 112.499697
100.000000, 121.586230
100.000000, 130.759301
100.000000, 140.018910
100.000000, 149.365058
100.000000, 158.797744
100.000000, 168.316969
100.000000, 177.922732
100.000000, 187.615034
100.000000, 197.393873
100.000000, 207.259252
100.000000, 217.211168
100.000000, 227.249624
100.000000, 237.374617
100.000000, 247.586149
100.000000, 257.884219
100.000000, 268.268828
100.000000, 278.739975
100.000000, 289.297661
100.000000, 299.941885
100.000000, 310.672647
100.000000, 321.489948
100.000000, 332.393787
100.000000, 343.384164
100.000000, 354.461080
100.000000, 5.624535
100.000000, 16.874528
100.000000, 28.211059
100.000000, 39.634128
100.000000, 51.143736
100.000000, 62.739883
100.000000, 74.422568
100.000000, 86.191791
100.000000, 98.047553
100.000000, 109.989853
100.000000, 122.018691
100.000000, 134.134068
100.000000, 146.335983
100.000000, 158.624437
100.000000, 170.999429
100.000000, 183.460959
100.000000, 196.009028
100.000000, 208.643635
100.000000, 221.364781
100.000000, 234.172465
100.000000, 247.066688
100.000000, 260.047449
100.000000, 273.114748
100.000000, 286.268586
100.000000, 299.508962
100.000000, 312.835876
100.000000, 326.249329
100.000000, 339.749321
100.000000, 353.335850
100.000000, 7.008919
100.000000, 20.768525
100.000000, 34.614670
100.000000, 48.547353
100.000000, 62.566575
100.000000, 76.672335
100.000000, 90.864634
100.000000, 105.143471
100.000000, 119.508846
100.000000, 133.960760
100.000000, 148.499213
100.000000, 163.124203
100.000000, 177.835732
100.000000, 192.633800
100.000000, 207.518405
100.000000, 222.489550
100.000000, 237.547232
100.000000, 252.691453
100.000000, 267.922213
100.000000, 283.239511
100.000000, 298.643347
100.000000, 314.133722
100.000000, 329.710635
100.000000, 345.374086
100.000000, 1.124076
100.000000, 16.960605
100.000000, 32.883671
100.000000, 48.893276
100.000000, 64.989420
100.000000, 81.172102
100.000000, 97.441322
100.000000, 113.797081
100.000000, 130.239378
100.000000, 146.768214
100.000000, 163.383588
100.000000, 180.085500
100.000000, 196.873951
100.000000, 213.748940
100.000000, 230.710467
100.000000, 247.758533
100.000000, 264.893138
100.000000, 282.114281
100.000000, 299.421962
100.000000, 316.816182
100.000000, 334.296940
100.000000, 351.864236
100.000000, 9.518071
100.000000, 27.258444
100.000000, 45.085356
100.000000, 62.998806
100.000000, 80.998794
100.000000, 99.085321
100.000000, 117.258386
100.000000, 135.517990
100.000000, 153.864132
100.000000, 172.296813
100.000000, 190.816032
100.000000, 209.421789
100.000000, 228.114085
100.000000, 246.892919
100.000000, 265.758291
100.000000, 284.710202
100.000000, 303.748651
100.000000, 322.873639
100.000000, 342.085165
100.000000, 1.383230
100.000000, 20.767833
100.000000, 40.238974
100.000000, 59.796654
100.000000, 79.440872
100.000000, 99.171629
100.000000, 118.988924
100.000000, 138.892757
100.000000, 158.883129
100.000000, 178.960039
100.000000, 199.123488
100.000000, 219.373475
100.000000, 239.710000
100.000000, 260.133064
100.000000, 280.642666
100.000000, 301.238807
100.000000, 321.921486
100.000000, 342.690703
100.000000, 3.546459
100.000000, 24.488754
100.000000, 45.517586
100.000000, 66.632957
100.000000, 87.834867
100.000000, 109.123315
100.000000, 130.498301
100.000000, 151.959826
100.000000, 173.507889
100.000000, 195.142490
100.000000, 216.863630
100.000000, 238.671309
100.000000, 260.565525
100.000000, 282.546280
100.000000, 304.613574
100.000000, 326.767406
100.000000, 349.007776
100.000000, 11.334685
100.000000, 33.748132
100.000000, 56.248118
100.000000, 78.834642
100.000000, 101.507704
100.000000, 124.267305
100.000000, 147.113444
100.000000, 170.046122
100.000000, 193.065338
100.000000, 216.171092
100.000000, 239.363385
100.000000, 262.642216
100.000000, 286.007586
100.000000, 309.459494
100.000000, 332.997940
100.000000, 356.622925
100.000000, 20.334449
100.000000, 44.132510
100.000000, 68.017110
100.000000, 91.988249
100.000000, 116.045926
100.000000, 140.190141
100.000000, 164.420895
100.000000, 188.738187
100.000000, 213.142017
100.000000, 237.632386
100.000000, 262.209293
100.000000, 286.872739
100.000000, 311.622723
100.000000, 336.459246
100.000000, 1.382307
100.000000, 26.391906
100.000000, 51.488044
100.000000, 76.670720
100.000000, 101.939935
100.000000, 127.295688
100.000000, 152.737979
100.000000, 178.266809
100.000000, 203.882177
100.000000, 229.584084
100.000000, 255.372529
100.000000, 281.247512
100.000000, 307.209034
100.000000, 333.257094
100.000000, 359.391693
100.000000, 25.612830
100.000000, 51.920505
100.000000, 78.314719
100.000000, 104.795471
100.000000, 131.362762
100.000000, 158.016591
100.000000, 184.756958
100.000000, 211.583864
100.000000, 238.497309
100.000000, 265.497291
100.000000, 292.583812
100.000000, 319.756872
100.000000, 347.016470
100.000000, 14.362606
100.000000, 41.795281
100.000000, 69.314494
100.000000, 96.920246
100.000000, 124.612536
100.000000, 152.391364
100.000000, 180.256731
100.000000, 208.208636
100.000000, 236.247079
100.000000, 264.372061
100.000000, 292.583582
100.000000, 320.881640
100.000000, 349.266238
100.000000, 17.737373
100.000000, 46.295047
100.000000, 74.939260
100.000000, 103.670010
100.000000, 132.487300
100.000000, 161.391127
100.000000, 190.381493
100.000000, 219.458398
100.000000, 248.621841
100.000000, 277.871822
100.000000, 307.208342
100.000000, 336.631400
100.000000, 6.140996
100.000000, 35.737131
100.000000, 65.419804
100.000000, 95.189016
100.000000, 125.044766
100.000000, 154.987054
100.000000, 185.015881
100.000000, 215.131247
100.000000, 245.333150
100.000000, 275.621593
100.000000, 305.996573
100.000000, 336.458092
100.000000, 7.006149
100.000000, 37.640745
100.000000, 68.361879
100.000000, 99.169552
100.000000, 130.063763
100.000000, 161.044512
100.000000, 192.111800
100.000000, 223.265626
100.000000, 254.505991
100.000000, 285.832894
100.000000, 317.246335
100.000000, 348.746315
100.000000, 20.332833
100.000000, 52.005890
100.000000, 83.765485
100.000000, 115.611618
100.000000, 147.544290
100.000000, 179.563500
100.000000, 211.669249
100.000000, 243.861536
100.000000, 276.140361
100.000000, 308.505725
100.000000, 340.957628
100.000000, 13.496068
100.000000, 46.121047
100.000000, 78.832565
100.000000, 111.630621
100.000000, 144.515215
100.000000, 177.486348
100.000000, 210.544019
100.000000, 243.688228
100.000000, 276.918976
100.000000, 310.236263
100.000000, 343.640087
100.000000, 17.130451
100.000000, 50.707352
100.000000, 84.370792
100.000000, 118.120770
100.000000, 151.957287
100.000000, 185.880342
100.000000, 219.889936
100.000000, 253.986068
100.000000, 288.168738
100.000000, 322.437947
100.000000, 356.793694
100.000000, 31.235980
100.000000, 65.764804
100.000000, 100.380166
100.000000, 135.082067
100.000000, 169.870506
100.000000, 204.745484
100.000000, 239.707000
100.000000, 274.755055
100.000000, 309.889648
100.000000, 345.110779
100.000000, 20.418448
100.000000, 55.812657
100.000000, 91.293403
100.000000, 126.860688
100.000000, 162.514511
100.000000, 198.254873
100.000000, 234.081773
100.000000, 269.995212
100.000000, 305.995188
100.000000, 342.081704
100.000000, 18.254758
100.000000, 54.514350
100.000000, 90.860480
100.000000, 127.293149
100.000000, 163.812357
100.000000, 200.418102
100.000000, 237.110386
100.000000, 273.889209
100.000000, 310.754570
100.000000, 347.706469
100.000000, 24.744907
100.000000, 61.869883
100.000000, 99.081398
100.000000, 136.379451
100.000000, 173.764042
100.000000, 211.235172
100.000000, 248.792841
100.000000, 286.437047
100.000000, 324.167792
100.000000, 1.985076
100.000000, 39.888898
100.000000, 77.879258
100.000000, 115.956156
100.000000, 154.119594
100.000000, 192.369569
100.000000, 230.706083
100.000000, 269.129135
100.000000, 307.638726
100.000000, 346.234855
100.000000, 24.917522
100.000000, 63.686728
100.000000, 102.542473
100.000000, 141.484755
100.000000, 180.513577
100.000000, 219.628936
100.000000, 258.830834
100.000000, 298.119270
100.000000, 337.494245
100.000000, 16.955758
100.000000, 56.503810
100.000000, 96.138400
100.000000, 135.859528
100.000000, 175.667195
100.000000, 215.561400
100.000000, 255.542144
100.000000, 295.609426
100.000000, 335.763246
100.000000, 16.003605
100.000000, 56.330502
100.000000, 96.743938
100.000000, 137.243912
100.000000, 177.830424
100.000000, 218.503475
100.000000, 259.263065
100.000000, 300.109192
100.000000, 341.041858
100.000000, 22.061063
100.000000, 63.166806
100.000000, 104.359087
100.000000, 145.637907
100.000000, 187.003265
100.000000, 228.455161
100.000000, 269.993596
100.000000, 311.618569
100.000000, 353.330081
100.000000, 35.128131
100.000000, 77.012720
100.000000, 118.983847
100.000000, 161.041512
100.000000, 203.185716
100.000000, 245.416458
100.000000, 287.733739
100.000000, 330.137558
100.000000, 12.627915
100.000000, 55.204811
100.000000, 97.868245
100.000000, 140.618218
100.000000, 183.454729
100.000000, 226.377778
100.000000, 269.387366
100.000000, 312.483492
100.000000, 355.666157
100.000000, 38.935360
100.000000, 82.291101
100.000000, 125.733381
100.000000, 169.262199
100.000000, 212.877556
100.000000, 256.579451
100.000000, 300.367884
100.000000, 344.242856
100.000000, 28.204367
100.000000, 72.252415
100.000000, 116.387002
100.000000, 160.608128
100.000000, 204.915792
100.000000, 249.309994
100.000000, 293.790735
100.000000, 338.358014
100.000000, 23.011831
100.000000, 67.752187
100.000000, 112.579082
100.000000, 157.492514
100.000000, 202.492486
100.000000, 247.578995
100.000000, 292.752043
100.000000, 338.011629
100.000000, 23.357754
100.000000, 68.790417
100.000000, 114.309619
100.000000, 159.915359
100.000000, 205.607637
100.000000, 251.386454
100.000000, 297.251809
100.000000, 343.203703
100.000000, 29.242135
100.000000, 75.367106
100.000000, 121.578614
100.000000, 167.876662
100.000000, 214.261247
100.000000, 260.732371
100.000000, 307.290034
100.000000, 353.934235
100.000000, 40.664974
100.000000, 87.482252
100.000000, 134.386068
100.000000, 181.376422
100.000000, 228.453315
100.000000, 275.616746
100.000000, 322.866716
100.000000, 10.203224
100.000000, 57.626271
100.000000, 105.135856
100.000000, 152.731979
100.000000, 200.414641
100.000000, 248.183841
100.000000, 296.039579
100.000000, 343.981856
100.000000, 32.010672
100.000000, 80.126026
100.000000, 128.327918
100.000000, 176.616348
100.000000, 224.991317
100.000000, 273.452825
100.000000, 322.000871
100.000000, 10.635455
100.000000, 59.356577
99.966847, 108.164238
99.867409, 157.058438
99.701753, 206.039176
99.469988, 255.106452
99.172267, 304.260266
98.808790, 353.500620
98.379795, 42.827511
97.885569, 92.240941
97.326437, 141.740909
96.702772, 191.327416
96.014987, 241.000461
95.263538, 290.760044
94.448923, 340.606166
93.571682, 30.538827
92.632397, 80.558025
91.631690, 130.663762
90.570226, 180.856038
89.448708, 231.134852
88.267880, 281.500204
87.028524, 331.952095
85.731463, 22.490524
84.377556, 73.115492
82.967701, 123.826998
81.502834, 174.625042
79.983924, 225.509625
78.411981, 276.480746
76.788045, 327.538405
75.113193, 18.682603
73.388537, 69.913340
71.615219, 121.230615
69.794415, 172.634428
67.927334, 224.124779
66.015212, 275.701669
64.059318, 327.365098
62.060948, 19.115065
60.021428, 70.951570
57.942110, 122.874614
55.824372, 174.884196
53.669619, 226.980316
51.479280, 279.162975
49.254807, 331.432172
46.997674, 23.787908
44.709379, 76.230182
42.391439, 128.758994
40.045391, 181.374345
37.672789, 234.076235
35.275209, 286.864662
32.854238, 339.739628
30.411483, 32.701133
27.948563, 85.749176
25.467112, 138.883757
22.968774, 192.104877
20.455207, 245.412535
17.928076, 298.806732
15.389058, 352.287466
12.839836, 45.854740
10.282100, 99.508552
7.717546, 153.248902
5.147875, 207.075790
2.574791, 260.989217
0.000000, 314.989183
##END=