##TITLE= CHORUS_3rd_300kHz1m5s1000
##JCAMP-DX= 5.00 Bruker JCAMP library
##DATA TYPE= Shape Data
##ORIGIN= Bruker BioSpin GmbH
##OWNER= <M.FOROOZANDEH>
##DATE= 16-Feb-2017
##TIME= 16:55:09
##$SHAPE_PARAMETERS= Type: SmoothedChirp ; Total Sweep-Width [kHz] 300 ; Length of Pulse [msec] 1 ; % to be smoothed 5
##MINX= 0
##MAXX= 100
##MINY= 0
##MAXY= 359.3864
##$SHAPE_EXMODE= Adiabatic
##$SHAPE_TOTROT= 1.800000E02
##$SHAPE_TYPE= Inversion
##$SHAPE_USER_DEF= 
##$SHAPE_REPHFAC= 
##$SHAPE_BWFAC= 2.735620E02
##$SHAPE_BWFAC50= 
##$SHAPE_INTEGFAC= 3.236043E-02
##$SHAPE_MODE= 0
##NPOINTS= 1000
##XYPOINTS= (XY..XY)
0.000000, 179.986473
3.205158, 125.986527
6.407022, 72.094798
9.602303, 18.311284
12.787716, 324.635987
15.959990, 271.068907
19.115863, 217.610042
22.252093, 164.259395
25.365458, 111.016963
28.452759, 57.882748
31.510822, 4.856749
34.536505, 311.938966
37.526700, 259.129400
40.478334, 206.428050
43.388374, 153.834916
46.253829, 101.349999
49.071755, 48.973298
51.839257, 356.704813
54.553490, 304.544545
57.211666, 252.492492
59.811053, 200.548657
62.348980, 148.713037
64.822840, 96.985634
67.230089, 45.366448
69.568255, 353.855477
71.834935, 302.452723
74.027800, 251.158185
76.144596, 199.971864
78.183148, 148.893759
80.141362, 97.923870
82.017225, 47.062197
83.808810, 356.308741
85.514276, 305.663501
87.131870, 255.126478
88.659931, 204.697671
90.096887, 154.377080
91.441262, 104.164705
92.691676, 54.060547
93.846842, 4.064605
94.905575, 314.176880
95.866785, 264.397370
96.729486, 214.726077
97.492791, 165.163001
98.155916, 115.708141
98.718178, 66.361497
99.179001, 17.123069
99.537911, 327.992858
99.794539, 278.970863
99.948622, 230.057084
100.000000, 181.251522
100.000000, 132.554176
100.000000, 83.965046
100.000000, 35.484133
100.000000, 347.111436
100.000000, 298.846955
100.000000, 250.690691
100.000000, 202.642643
100.000000, 154.702811
100.000000, 106.871196
100.000000, 59.147796
100.000000, 11.532614
100.000000, 324.025647
100.000000, 276.626897
100.000000, 229.336363
100.000000, 182.154046
100.000000, 135.079945
100.000000, 88.114060
100.000000, 41.256392
100.000000, 354.506939
100.000000, 307.865704
100.000000, 261.332684
100.000000, 214.907881
100.000000, 168.591294
100.000000, 122.382923
100.000000, 76.282769
100.000000, 30.290831
100.000000, 344.407110
100.000000, 298.631605
100.000000, 252.964316
100.000000, 207.405243
100.000000, 161.954387
100.000000, 116.611747
100.000000, 71.377323
100.000000, 26.251116
100.000000, 341.233125
100.000000, 296.323350
100.000000, 251.521792
100.000000, 206.828450
100.000000, 162.243324
100.000000, 117.766415
100.000000, 73.397722
100.000000, 29.137245
100.000000, 344.984985
100.000000, 300.940941
100.000000, 257.005113
100.000000, 213.177502
100.000000, 169.458107
100.000000, 125.846928
100.000000, 82.343966
100.000000, 38.949219
100.000000, 355.662690
100.000000, 312.484376
100.000000, 269.414279
100.000000, 226.452398
100.000000, 183.598734
100.000000, 140.853286
100.000000, 98.216054
100.000000, 55.687038
100.000000, 13.266239
100.000000, 330.953656
100.000000, 288.749290
100.000000, 246.653140
100.000000, 204.665206
100.000000, 162.785488
100.000000, 121.013987
100.000000, 79.350702
100.000000, 37.795633
100.000000, 356.348781
100.000000, 315.010145
100.000000, 273.779726
100.000000, 232.657522
100.000000, 191.643535
100.000000, 150.737765
100.000000, 109.940210
100.000000, 69.250872
100.000000, 28.669751
100.000000, 348.196845
100.000000, 307.832156
100.000000, 267.575684
100.000000, 227.427427
100.000000, 187.387387
100.000000, 147.455564
100.000000, 107.631956
100.000000, 67.916565
100.000000, 28.309390
100.000000, 348.810432
100.000000, 309.419690
100.000000, 270.137164
100.000000, 230.962855
100.000000, 191.896762
100.000000, 152.938885
100.000000, 114.089224
100.000000, 75.347780
100.000000, 36.714552
100.000000, 358.189541
100.000000, 319.772746
100.000000, 281.464167
100.000000, 243.263804
100.000000, 205.171658
100.000000, 167.187728
100.000000, 129.312015
100.000000, 91.544517
100.000000, 53.885237
100.000000, 16.334172
100.000000, 338.891324
100.000000, 301.556692
100.000000, 264.330276
100.000000, 227.212077
100.000000, 190.202094
100.000000, 153.300327
100.000000, 116.506777
100.000000, 79.821443
100.000000, 43.244325
100.000000, 6.775424
100.000000, 330.414739
100.000000, 294.162270
100.000000, 258.018018
100.000000, 221.981982
100.000000, 186.054162
100.000000, 150.234559
100.000000, 114.523172
100.000000, 78.920001
100.000000, 43.425047
100.000000, 8.038309
100.000000, 332.759787
100.000000, 297.589481
100.000000, 262.527392
100.000000, 227.573519
100.000000, 192.727863
100.000000, 157.990423
100.000000, 123.361199
100.000000, 88.840192
100.000000, 54.427400
100.000000, 20.122826
100.000000, 345.926467
100.000000, 311.838325
100.000000, 277.858399
100.000000, 243.986689
100.000000, 210.223196
100.000000, 176.567919
100.000000, 143.020859
100.000000, 109.582014
100.000000, 76.251387
100.000000, 43.028975
100.000000, 9.914780
100.000000, 336.908801
100.000000, 304.011038
100.000000, 271.221492
100.000000, 238.540162
100.000000, 205.967048
100.000000, 173.502151
100.000000, 141.145470
100.000000, 108.897005
100.000000, 76.756757
100.000000, 44.724725
100.000000, 12.800909
100.000000, 340.985310
100.000000, 309.277927
100.000000, 277.678760
100.000000, 246.187809
100.000000, 214.805075
100.000000, 183.530558
100.000000, 152.364256
100.000000, 121.306171
100.000000, 90.356302
100.000000, 59.514650
100.000000, 28.781214
100.000000, 358.155994
100.000000, 327.638990
100.000000, 297.230203
100.000000, 266.929632
100.000000, 236.737278
100.000000, 206.653140
100.000000, 176.677218
100.000000, 146.809512
100.000000, 117.050023
100.000000, 87.398750
100.000000, 57.855694
100.000000, 28.420853
100.000000, 359.094229
100.000000, 329.875822
100.000000, 300.765630
100.000000, 271.763656
100.000000, 242.869897
100.000000, 214.084355
100.000000, 185.407029
100.000000, 156.837919
100.000000, 128.377026
100.000000, 100.024349
100.000000, 71.779888
100.000000, 43.643644
100.000000, 15.615616
100.000000, 347.695804
100.000000, 319.884209
100.000000, 292.180829
100.000000, 264.585667
100.000000, 237.098720
100.000000, 209.719990
100.000000, 182.449477
100.000000, 155.287179
100.000000, 128.233098
100.000000, 101.287233
100.000000, 74.449585
100.000000, 47.720153
100.000000, 21.098937
100.000000, 354.585937
100.000000, 328.181154
100.000000, 301.884587
100.000000, 275.696237
100.000000, 249.616103
100.000000, 223.644185
100.000000, 197.780483
100.000000, 172.024998
100.000000, 146.377729
100.000000, 120.838677
100.000000, 95.407840
100.000000, 70.085220
100.000000, 44.870817
100.000000, 19.764629
100.000000, 354.766659
100.000000, 329.876904
100.000000, 305.095366
100.000000, 280.422044
100.000000, 255.856938
100.000000, 231.400049
100.000000, 207.051376
100.000000, 182.810919
100.000000, 158.678679
100.000000, 134.654655
100.000000, 110.738847
100.000000, 86.931256
100.000000, 63.231881
100.000000, 39.640722
100.000000, 16.157779
100.000000, 352.783053
100.000000, 329.516544
100.000000, 306.358250
100.000000, 283.308173
100.000000, 260.366312
100.000000, 237.532668
100.000000, 214.807240
100.000000, 192.190028
100.000000, 169.681032
100.000000, 147.280253
100.000000, 124.987690
100.000000, 102.803344
100.000000, 80.727214
100.000000, 58.759300
100.000000, 36.899602
100.000000, 15.148121
100.000000, 353.504856
100.000000, 331.969808
100.000000, 310.542975
100.000000, 289.224359
100.000000, 268.013960
100.000000, 246.911777
100.000000, 225.917810
100.000000, 205.032059
100.000000, 184.254525
100.000000, 163.585207
100.000000, 143.024105
100.000000, 122.571220
100.000000, 102.226551
100.000000, 81.990098
100.000000, 61.861862
100.000000, 41.841842
100.000000, 21.930038
100.000000, 2.126451
100.000000, 342.431080
100.000000, 322.843925
100.000000, 303.364987
100.000000, 283.994265
100.000000, 264.731759
100.000000, 245.577469
100.000000, 226.531396
100.000000, 207.593539
100.000000, 188.763899
100.000000, 170.042475
100.000000, 151.429267
100.000000, 132.924276
100.000000, 114.527500
100.000000, 96.238942
100.000000, 78.058599
100.000000, 59.986473
100.000000, 42.022563
100.000000, 24.166870
100.000000, 6.419392
100.000000, 348.780131
100.000000, 331.249087
100.000000, 313.826259
100.000000, 296.511647
100.000000, 279.305251
100.000000, 262.207072
100.000000, 245.217109
100.000000, 228.335362
100.000000, 211.561832
100.000000, 194.896518
100.000000, 178.339421
100.000000, 161.890539
100.000000, 145.549874
100.000000, 129.317426
100.000000, 113.193193
100.000000, 97.177177
100.000000, 81.269377
100.000000, 65.469794
100.000000, 49.778427
100.000000, 34.195276
100.000000, 18.720342
100.000000, 3.353624
100.000000, 348.095122
100.000000, 332.944837
100.000000, 317.902768
100.000000, 302.968915
100.000000, 288.143278
100.000000, 273.425858
100.000000, 258.816654
100.000000, 244.315667
100.000000, 229.922896
100.000000, 215.638341
100.000000, 201.462003
100.000000, 187.393880
100.000000, 173.433975
100.000000, 159.582285
100.000000, 145.838812
100.000000, 132.203555
100.000000, 118.676514
100.000000, 105.257690
100.000000, 91.947082
100.000000, 78.744691
100.000000, 65.650515
100.000000, 52.664556
100.000000, 39.786814
100.000000, 27.017288
100.000000, 14.355978
100.000000, 1.802884
100.000000, 349.358007
100.000000, 337.021346
100.000000, 324.792901
100.000000, 312.672673
100.000000, 300.660661
100.000000, 288.756865
100.000000, 276.961286
100.000000, 265.273923
100.000000, 253.694776
100.000000, 242.223845
100.000000, 230.861131
100.000000, 219.606634
100.000000, 208.460352
100.000000, 197.422287
100.000000, 186.492438
100.000000, 175.670806
100.000000, 164.957390
100.000000, 154.352190
100.000000, 143.855207
100.000000, 133.466439
100.000000, 123.185889
100.000000, 113.013554
100.000000, 102.949436
100.000000, 92.993534
100.000000, 83.145849
100.000000, 73.406379
100.000000, 63.775126
100.000000, 54.252090
100.000000, 44.837270
100.000000, 35.530666
100.000000, 26.332278
100.000000, 17.242107
100.000000, 8.260152
100.000000, 359.386413
100.000000, 350.620891
100.000000, 341.963585
100.000000, 333.414496
100.000000, 324.973622
100.000000, 316.640965
100.000000, 308.416525
100.000000, 300.300300
100.000000, 292.292292
100.000000, 284.392501
100.000000, 276.600925
100.000000, 268.917566
100.000000, 261.342424
100.000000, 253.875497
100.000000, 246.516787
100.000000, 239.266293
100.000000, 232.124016
100.000000, 225.089955
100.000000, 218.164110
100.000000, 211.346482
100.000000, 204.637070
100.000000, 198.035874
100.000000, 191.542894
100.000000, 185.158131
100.000000, 178.881584
100.000000, 172.713254
100.000000, 166.653140
100.000000, 160.701242
100.000000, 154.857560
100.000000, 149.122095
100.000000, 143.494846
100.000000, 137.975814
100.000000, 132.564997
100.000000, 127.262398
100.000000, 122.068014
100.000000, 116.981847
100.000000, 112.003896
100.000000, 107.134161
100.000000, 102.372643
100.000000, 97.719341
100.000000, 93.174255
100.000000, 88.737386
100.000000, 84.408733
100.000000, 80.188296
100.000000, 76.076076
100.000000, 72.072072
100.000000, 68.176284
100.000000, 64.388713
100.000000, 60.709358
100.000000, 57.138219
100.000000, 53.675297
100.000000, 50.320591
100.000000, 47.074101
100.000000, 43.935828
100.000000, 40.905771
100.000000, 37.983930
100.000000, 35.170305
100.000000, 32.464897
100.000000, 29.867706
100.000000, 27.378730
100.000000, 24.997971
100.000000, 22.725428
100.000000, 20.561102
100.000000, 18.504991
100.000000, 16.557098
100.000000, 14.717420
100.000000, 12.985959
100.000000, 11.362714
100.000000, 9.847686
100.000000, 8.440873
100.000000, 7.142277
100.000000, 5.951898
100.000000, 4.869735
100.000000, 3.895788
100.000000, 3.030057
100.000000, 2.272543
100.000000, 1.623245
100.000000, 1.082163
100.000000, 0.649298
100.000000, 0.324649
100.000000, 0.108216
100.000000, 0.000000
100.000000, 0.000000
100.000000, 0.108216
100.000000, 0.324649
100.000000, 0.649298
100.000000, 1.082163
100.000000, 1.623245
100.000000, 2.272543
100.000000, 3.030057
100.000000, 3.895788
100.000000, 4.869735
100.000000, 5.951898
100.000000, 7.142277
100.000000, 8.440873
100.000000, 9.847686
100.000000, 11.362714
100.000000, 12.985959
100.000000, 14.717420
100.000000, 16.557098
100.000000, 18.504991
100.000000, 20.561102
100.000000, 22.725428
100.000000, 24.997971
100.000000, 27.378730
100.000000, 29.867706
100.000000, 32.464897
100.000000, 35.170305
100.000000, 37.983930
100.000000, 40.905771
100.000000, 43.935828
100.000000, 47.074101
100.000000, 50.320591
100.000000, 53.675297
100.000000, 57.138219
100.000000, 60.709358
100.000000, 64.388713
100.000000, 68.176284
100.000000, 72.072072
100.000000, 76.076076
100.000000, 80.188296
100.000000, 84.408733
100.000000, 88.737386
100.000000, 93.174255
100.000000, 97.719341
100.000000, 102.372643
100.000000, 107.134161
100.000000, 112.003896
100.000000, 116.981847
100.000000, 122.068014
100.000000, 127.262398
100.000000, 132.564997
100.000000, 137.975814
100.000000, 143.494846
100.000000, 149.122095
100.000000, 154.857560
100.000000, 160.701242
100.000000, 166.653140
100.000000, 172.713254
100.000000, 178.881584
100.000000, 185.158131
100.000000, 191.542894
100.000000, 198.035874
100.000000, 204.637070
100.000000, 211.346482
100.000000, 218.164110
100.000000, 225.089955
100.000000, 232.124016
100.000000, 239.266293
100.000000, 246.516787
100.000000, 253.875497
100.000000, 261.342424
100.000000, 268.917566
100.000000, 276.600925
100.000000, 284.392501
100.000000, 292.292292
100.000000, 300.300300
100.000000, 308.416525
100.000000, 316.640965
100.000000, 324.973622
100.000000, 333.414496
100.000000, 341.963585
100.000000, 350.620891
100.000000, 359.386413
100.000000, 8.260152
100.000000, 17.242107
100.000000, 26.332278
100.000000, 35.530666
100.000000, 44.837270
100.000000, 54.252090
100.000000, 63.775126
100.000000, 73.406379
100.000000, 83.145849
100.000000, 92.993534
100.000000, 102.949436
100.000000, 113.013554
100.000000, 123.185889
100.000000, 133.466439
100.000000, 143.855207
100.000000, 154.352190
100.000000, 164.957390
100.000000, 175.670806
100.000000, 186.492438
100.000000, 197.422287
100.000000, 208.460352
100.000000, 219.606634
100.000000, 230.861131
100.000000, 242.223845
100.000000, 253.694776
100.000000, 265.273923
100.000000, 276.961286
100.000000, 288.756865
100.000000, 300.660661
100.000000, 312.672673
100.000000, 324.792901
100.000000, 337.021346
100.000000, 349.358007
100.000000, 1.802884
100.000000, 14.355978
100.000000, 27.017288
100.000000, 39.786814
100.000000, 52.664556
100.000000, 65.650515
100.000000, 78.744691
100.000000, 91.947082
100.000000, 105.257690
100.000000, 118.676514
100.000000, 132.203555
100.000000, 145.838812
100.000000, 159.582285
100.000000, 173.433975
100.000000, 187.393880
100.000000, 201.462003
100.000000, 215.638341
100.000000, 229.922896
100.000000, 244.315667
100.000000, 258.816654
100.000000, 273.425858
100.000000, 288.143278
100.000000, 302.968915
100.000000, 317.902768
100.000000, 332.944837
100.000000, 348.095122
100.000000, 3.353624
100.000000, 18.720342
100.000000, 34.195276
100.000000, 49.778427
100.000000, 65.469794
100.000000, 81.269377
100.000000, 97.177177
100.000000, 113.193193
100.000000, 129.317426
100.000000, 145.549874
100.000000, 161.890539
100.000000, 178.339421
100.000000, 194.896518
100.000000, 211.561832
100.000000, 228.335362
100.000000, 245.217109
100.000000, 262.207072
100.000000, 279.305251
100.000000, 296.511647
100.000000, 313.826259
100.000000, 331.249087
100.000000, 348.780131
100.000000, 6.419392
100.000000, 24.166870
100.000000, 42.022563
100.000000, 59.986473
100.000000, 78.058599
100.000000, 96.238942
100.000000, 114.527500
100.000000, 132.924276
100.000000, 151.429267
100.000000, 170.042475
100.000000, 188.763899
100.000000, 207.593539
100.000000, 226.531396
100.000000, 245.577469
100.000000, 264.731759
100.000000, 283.994265
100.000000, 303.364987
100.000000, 322.843925
100.000000, 342.431080
100.000000, 2.126451
100.000000, 21.930038
100.000000, 41.841842
100.000000, 61.861862
100.000000, 81.990098
100.000000, 102.226551
100.000000, 122.571220
100.000000, 143.024105
100.000000, 163.585207
100.000000, 184.254525
100.000000, 205.032059
100.000000, 225.917810
100.000000, 246.911777
100.000000, 268.013960
100.000000, 289.224359
100.000000, 310.542975
100.000000, 331.969808
100.000000, 353.504856
100.000000, 15.148121
100.000000, 36.899602
100.000000, 58.759300
100.000000, 80.727214
100.000000, 102.803344
100.000000, 124.987690
100.000000, 147.280253
100.000000, 169.681032
100.000000, 192.190028
100.000000, 214.807240
100.000000, 237.532668
100.000000, 260.366312
100.000000, 283.308173
100.000000, 306.358250
100.000000, 329.516544
100.000000, 352.783053
100.000000, 16.157779
100.000000, 39.640722
100.000000, 63.231881
100.000000, 86.931256
100.000000, 110.738847
100.000000, 134.654655
100.000000, 158.678679
100.000000, 182.810919
100.000000, 207.051376
100.000000, 231.400049
100.000000, 255.856938
100.000000, 280.422044
100.000000, 305.095366
100.000000, 329.876904
100.000000, 354.766659
100.000000, 19.764629
100.000000, 44.870817
100.000000, 70.085220
100.000000, 95.407840
100.000000, 120.838677
100.000000, 146.377729
100.000000, 172.024998
100.000000, 197.780483
100.000000, 223.644185
100.000000, 249.616103
100.000000, 275.696237
100.000000, 301.884587
100.000000, 328.181154
100.000000, 354.585937
100.000000, 21.098937
100.000000, 47.720153
100.000000, 74.449585
100.000000, 101.287233
100.000000, 128.233098
100.000000, 155.287179
100.000000, 182.449477
100.000000, 209.719990
100.000000, 237.098720
100.000000, 264.585667
100.000000, 292.180829
100.000000, 319.884209
100.000000, 347.695804
100.000000, 15.615616
100.000000, 43.643644
100.000000, 71.779888
100.000000, 100.024349
100.000000, 128.377026
100.000000, 156.837919
100.000000, 185.407029
100.000000, 214.084355
100.000000, 242.869897
100.000000, 271.763656
100.000000, 300.765630
100.000000, 329.875822
100.000000, 359.094229
100.000000, 28.420853
100.000000, 57.855694
100.000000, 87.398750
100.000000, 117.050023
100.000000, 146.809512
100.000000, 176.677218
100.000000, 206.653140
100.000000, 236.737278
100.000000, 266.929632
100.000000, 297.230203
100.000000, 327.638990
100.000000, 358.155994
100.000000, 28.781214
100.000000, 59.514650
100.000000, 90.356302
100.000000, 121.306171
100.000000, 152.364256
100.000000, 183.530558
100.000000, 214.805075
100.000000, 246.187809
100.000000, 277.678760
100.000000, 309.277927
100.000000, 340.985310
100.000000, 12.800909
100.000000, 44.724725
100.000000, 76.756757
100.000000, 108.897005
100.000000, 141.145470
100.000000, 173.502151
100.000000, 205.967048
100.000000, 238.540162
100.000000, 271.221492
100.000000, 304.011038
100.000000, 336.908801
100.000000, 9.914780
100.000000, 43.028975
100.000000, 76.251387
100.000000, 109.582014
100.000000, 143.020859
100.000000, 176.567919
100.000000, 210.223196
100.000000, 243.986689
100.000000, 277.858399
100.000000, 311.838325
100.000000, 345.926467
100.000000, 20.122826
100.000000, 54.427400
100.000000, 88.840192
100.000000, 123.361199
100.000000, 157.990423
100.000000, 192.727863
100.000000, 227.573519
100.000000, 262.527392
100.000000, 297.589481
100.000000, 332.759787
100.000000, 8.038309
100.000000, 43.425047
100.000000, 78.920001
100.000000, 114.523172
100.000000, 150.234559
100.000000, 186.054162
100.000000, 221.981982
100.000000, 258.018018
100.000000, 294.162270
100.000000, 330.414739
100.000000, 6.775424
100.000000, 43.244325
100.000000, 79.821443
100.000000, 116.506777
100.000000, 153.300327
100.000000, 190.202094
100.000000, 227.212077
100.000000, 264.330276
100.000000, 301.556692
100.000000, 338.891324
100.000000, 16.334172
100.000000, 53.885237
100.000000, 91.544517
100.000000, 129.312015
100.000000, 167.187728
100.000000, 205.171658
100.000000, 243.263804
100.000000, 281.464167
100.000000, 319.772746
100.000000, 358.189541
100.000000, 36.714552
100.000000, 75.347780
100.000000, 114.089224
100.000000, 152.938885
100.000000, 191.896762
100.000000, 230.962855
100.000000, 270.137164
100.000000, 309.419690
100.000000, 348.810432
100.000000, 28.309390
100.000000, 67.916565
100.000000, 107.631956
100.000000, 147.455564
100.000000, 187.387387
100.000000, 227.427427
100.000000, 267.575684
100.000000, 307.832156
100.000000, 348.196845
100.000000, 28.669751
100.000000, 69.250872
100.000000, 109.940210
100.000000, 150.737765
100.000000, 191.643535
100.000000, 232.657522
100.000000, 273.779726
100.000000, 315.010145
100.000000, 356.348781
100.000000, 37.795633
100.000000, 79.350702
100.000000, 121.013987
100.000000, 162.785488
100.000000, 204.665206
100.000000, 246.653140
100.000000, 288.749290
100.000000, 330.953656
100.000000, 13.266239
100.000000, 55.687038
100.000000, 98.216054
100.000000, 140.853286
100.000000, 183.598734
100.000000, 226.452398
100.000000, 269.414279
100.000000, 312.484376
100.000000, 355.662690
100.000000, 38.949219
100.000000, 82.343966
100.000000, 125.846928
100.000000, 169.458107
100.000000, 213.177502
100.000000, 257.005113
100.000000, 300.940941
100.000000, 344.984985
100.000000, 29.137245
100.000000, 73.397722
100.000000, 117.766415
100.000000, 162.243324
100.000000, 206.828450
100.000000, 251.521792
100.000000, 296.323350
100.000000, 341.233125
100.000000, 26.251116
100.000000, 71.377323
100.000000, 116.611747
100.000000, 161.954387
100.000000, 207.405243
100.000000, 252.964316
100.000000, 298.631605
100.000000, 344.407110
100.000000, 30.290831
100.000000, 76.282769
100.000000, 122.382923
100.000000, 168.591294
100.000000, 214.907881
100.000000, 261.332684
100.000000, 307.865704
100.000000, 354.506939
100.000000, 41.256392
100.000000, 88.114060
100.000000, 135.079945
100.000000, 182.154046
100.000000, 229.336363
100.000000, 276.626897
100.000000, 324.025647
100.000000, 11.532614
100.000000, 59.147796
100.000000, 106.871196
100.000000, 154.702811
100.000000, 202.642643
100.000000, 250.690691
100.000000, 298.846955
100.000000, 347.111436
100.000000, 35.484133
100.000000, 83.965046
100.000000, 132.554176
100.000000, 181.251522
99.948622, 230.057084
99.794539, 278.970863
99.537911, 327.992858
99.179001, 17.123069
98.718178, 66.361497
98.155916, 115.708141
97.492791, 165.163001
96.729486, 214.726077
95.866785, 264.397370
94.905575, 314.176880
93.846842, 4.064605
92.691676, 54.060547
91.441262, 104.164705
90.096887, 154.377080
88.659931, 204.697671
87.131870, 255.126478
85.514276, 305.663501
83.808810, 356.308741
82.017225, 47.062197
80.141362, 97.923870
78.183148, 148.893759
76.144596, 199.971864
74.027800, 251.158185
71.834935, 302.452723
69.568255, 353.855477
67.230089, 45.366448
64.822840, 96.985634
62.348980, 148.713037
59.811053, 200.548657
57.211666, 252.492492
54.553490, 304.544545
51.839257, 356.704813
49.071755, 48.973298
46.253829, 101.349999
43.388374, 153.834916
40.478334, 206.428050
37.526700, 259.129400
34.536505, 311.938966
31.510822, 4.856749
28.452759, 57.882748
25.365458, 111.016963
22.252093, 164.259395
19.115863, 217.610042
15.959990, 271.068907
12.787716, 324.635987
9.602303, 18.311284
6.407022, 72.094798
3.205158, 125.986527
0.000000, 179.986473
##END=