##TITLE= CHORUS_1st_300kHz0.5m5s500
##JCAMP-DX= 5.00 Bruker JCAMP library
##DATA TYPE= Shape Data
##ORIGIN= Bruker BioSpin GmbH
##OWNER= <M.FOROOZANDEH>
##DATE= 05-Jun-2018
##TIME= 12:16:03
##$SHAPE_PARAMETERS= Type: SmoothedChirp ; Total Sweep-Width [kHz] 300 ; Length of Pulse [msec] 0.5 ; % to be smoothed 5
##MINX= 0
##MAXX= 100
##MINY= 0.059089
##MAXY= 358.6884
##$SHAPE_EXMODE= Adiabatic
##$SHAPE_TOTROT= 1.800000E02
##$SHAPE_TYPE= Inversion
##$SHAPE_USER_DEF= 
##$SHAPE_REPHFAC= 
##$SHAPE_BWFAC= 2.735620E02
##$SHAPE_BWFAC50= 
##$SHAPE_INTEGFAC= 3.236043E-02
##$SHAPE_MODE= 0
##NPOINTS= 500
##XYPOINTS= (XY..XY)
0.000000, 42.238137
6.540313, 338.503525
13.052619, 275.475962
19.509032, 213.135380
25.881905, 151.462385
32.143947, 90.438239
38.268343, 30.044844
44.228869, 330.264721
50.000000, 271.080995
55.557023, 212.477378
60.876143, 154.438151
65.934582, 96.948148
70.710678, 39.992744
75.183981, 343.557834
79.335334, 287.629822
83.146961, 232.195603
86.602540, 177.242551
89.687274, 122.758506
92.387953, 68.731757
94.693013, 15.151031
96.592583, 322.005477
98.078528, 269.284659
99.144486, 216.978537
99.785892, 165.077457
100.000000, 113.572144
100.000000, 62.453680
100.000000, 11.713504
100.000000, 321.343394
100.000000, 271.335457
100.000000, 221.682120
100.000000, 172.376120
100.000000, 123.410493
100.000000, 74.778565
100.000000, 26.473940
100.000000, 338.490494
100.000000, 290.822366
100.000000, 243.463946
100.000000, 196.409869
100.000000, 149.655008
100.000000, 103.194461
100.000000, 57.023548
100.000000, 11.137802
100.000000, 325.532958
100.000000, 280.204953
100.000000, 235.149911
100.000000, 190.364141
100.000000, 145.844130
100.000000, 101.586534
100.000000, 57.588175
100.000000, 13.846032
100.000000, 330.357236
100.000000, 287.119065
100.000000, 244.128937
100.000000, 201.384407
100.000000, 158.883158
100.000000, 116.622999
100.000000, 74.601858
100.000000, 32.817778
100.000000, 351.268915
100.000000, 309.953526
100.000000, 268.869974
100.000000, 228.016716
100.000000, 187.392303
100.000000, 146.995376
100.000000, 106.824659
100.000000, 66.878958
100.000000, 27.157158
100.000000, 347.658217
100.000000, 308.381163
100.000000, 269.325093
100.000000, 230.489168
100.000000, 191.872610
100.000000, 153.474699
100.000000, 115.294770
100.000000, 77.332212
100.000000, 39.586462
100.000000, 2.057007
100.000000, 324.743378
100.000000, 287.645146
100.000000, 250.761927
100.000000, 214.093370
100.000000, 177.639165
100.000000, 141.399031
100.000000, 105.372722
100.000000, 69.560022
100.000000, 33.960741
100.000000, 358.574719
100.000000, 323.401816
100.000000, 288.441921
100.000000, 253.694939
100.000000, 219.160798
100.000000, 184.839446
100.000000, 150.730847
100.000000, 116.834979
100.000000, 83.151839
100.000000, 49.681434
100.000000, 16.423787
100.000000, 343.378930
100.000000, 310.546907
100.000000, 277.927770
100.000000, 245.521581
100.000000, 213.328409
100.000000, 181.348331
100.000000, 149.581429
100.000000, 118.027791
100.000000, 86.687509
100.000000, 55.560680
100.000000, 24.647404
100.000000, 353.947783
100.000000, 323.461922
100.000000, 293.189929
100.000000, 263.131910
100.000000, 233.287975
100.000000, 203.658232
100.000000, 174.242790
100.000000, 145.041759
100.000000, 116.055245
100.000000, 87.283355
100.000000, 58.726195
100.000000, 30.383868
100.000000, 2.256476
100.000000, 334.344118
100.000000, 306.646891
100.000000, 279.164890
100.000000, 251.898208
100.000000, 224.846933
100.000000, 198.011151
100.000000, 171.390945
100.000000, 144.986396
100.000000, 118.797579
100.000000, 92.824569
100.000000, 67.067435
100.000000, 41.526243
100.000000, 16.201056
100.000000, 351.091935
100.000000, 326.198934
100.000000, 301.522107
100.000000, 277.061502
100.000000, 252.817165
100.000000, 228.789138
100.000000, 204.977460
100.000000, 181.382167
100.000000, 158.003290
100.000000, 134.840858
100.000000, 111.894897
100.000000, 89.165430
100.000000, 66.652475
100.000000, 44.356051
100.000000, 22.276170
100.000000, 0.412843
100.000000, 338.766079
100.000000, 317.335883
100.000000, 296.122258
100.000000, 275.125206
100.000000, 254.344724
100.000000, 233.780808
100.000000, 213.433454
100.000000, 193.302652
100.000000, 173.388392
100.000000, 153.690664
100.000000, 134.209454
100.000000, 114.944747
100.000000, 95.896527
100.000000, 77.064774
100.000000, 58.449472
100.000000, 40.050598
100.000000, 21.868132
100.000000, 3.902052
100.000000, 346.152333
100.000000, 328.618953
100.000000, 311.301885
100.000000, 294.201105
100.000000, 277.316587
100.000000, 260.648304
100.000000, 244.196230
100.000000, 227.960337
100.000000, 211.940600
100.000000, 196.136989
100.000000, 180.549478
100.000000, 165.178040
100.000000, 150.022647
100.000000, 135.083273
100.000000, 120.359891
100.000000, 105.852474
100.000000, 91.560997
100.000000, 77.485433
100.000000, 63.625758
100.000000, 49.981947
100.000000, 36.553976
100.000000, 23.341822
100.000000, 10.345461
100.000000, 357.564872
100.000000, 345.000033
100.000000, 332.650924
100.000000, 320.517526
100.000000, 308.599818
100.000000, 296.897784
100.000000, 285.411405
100.000000, 274.140666
100.000000, 263.085552
100.000000, 252.246046
100.000000, 241.622137
100.000000, 231.213812
100.000000, 221.021058
100.000000, 211.043865
100.000000, 201.282224
100.000000, 191.736125
100.000000, 182.405560
100.000000, 173.290523
100.000000, 164.391008
100.000000, 155.707009
100.000000, 147.238523
100.000000, 138.985545
100.000000, 130.948074
100.000000, 123.126108
100.000000, 115.519647
100.000000, 108.128689
100.000000, 100.953237
100.000000, 93.993293
100.000000, 87.248857
100.000000, 80.719934
100.000000, 74.406527
100.000000, 68.308642
100.000000, 62.426282
100.000000, 56.759454
100.000000, 51.308164
100.000000, 46.072419
100.000000, 41.052227
100.000000, 36.247595
100.000000, 31.658532
100.000000, 27.285045
100.000000, 23.127145
100.000000, 19.184841
100.000000, 15.458143
100.000000, 11.947060
100.000000, 8.651602
100.000000, 5.571781
100.000000, 2.707606
100.000000, 0.059089
100.000000, 357.626240
100.000000, 355.409070
100.000000, 353.407590
100.000000, 351.621811
100.000000, 350.051743
100.000000, 348.697398
100.000000, 347.558785
100.000000, 346.635916
100.000000, 345.928801
100.000000, 345.437449
100.000000, 345.161870
100.000000, 345.102075
100.000000, 345.258073
100.000000, 345.629871
100.000000, 346.217480
100.000000, 347.020907
100.000000, 348.040160
100.000000, 349.275247
100.000000, 350.726174
100.000000, 352.392949
100.000000, 354.275577
100.000000, 356.374064
100.000000, 358.688415
100.000000, 1.218634
100.000000, 3.964726
100.000000, 6.926694
100.000000, 10.104542
100.000000, 13.498270
100.000000, 17.107882
100.000000, 20.933379
100.000000, 24.974760
100.000000, 29.232027
100.000000, 33.705178
100.000000, 38.394213
100.000000, 43.299130
100.000000, 48.419926
100.000000, 53.756599
100.000000, 59.309146
100.000000, 65.077561
100.000000, 71.061841
100.000000, 77.261980
100.000000, 83.677973
100.000000, 90.309814
100.000000, 97.157496
100.000000, 104.221010
100.000000, 111.500351
100.000000, 118.995510
100.000000, 126.706477
100.000000, 134.633244
100.000000, 142.775801
100.000000, 151.134139
100.000000, 159.708246
100.000000, 168.498113
100.000000, 177.503729
100.000000, 186.725081
100.000000, 196.162159
100.000000, 205.814951
100.000000, 215.683445
100.000000, 225.767627
100.000000, 236.067487
100.000000, 246.583011
100.000000, 257.314187
100.000000, 268.261001
100.000000, 279.423442
100.000000, 290.801496
100.000000, 302.395149
100.000000, 314.204390
100.000000, 326.229206
100.000000, 338.469583
100.000000, 350.925509
100.000000, 3.596972
100.000000, 16.483959
100.000000, 29.586458
100.000000, 42.904457
100.000000, 56.437945
100.000000, 70.186910
100.000000, 84.151340
100.000000, 98.331226
100.000000, 112.726557
100.000000, 127.337322
100.000000, 142.163512
100.000000, 157.205118
100.000000, 172.462131
100.000000, 187.934542
100.000000, 203.622344
100.000000, 219.525529
100.000000, 235.644090
100.000000, 251.978021
100.000000, 268.527315
100.000000, 285.291968
100.000000, 302.271975
100.000000, 319.467331
100.000000, 336.878033
100.000000, 354.504077
100.000000, 12.345460
100.000000, 30.402181
100.000000, 48.674238
100.000000, 67.161630
100.000000, 85.864357
100.000000, 104.782418
100.000000, 123.915814
100.000000, 143.264546
100.000000, 162.828616
100.000000, 182.608025
100.000000, 202.602776
100.000000, 222.812872
100.000000, 243.238316
100.000000, 263.879111
100.000000, 284.735262
100.000000, 305.806772
100.000000, 327.093646
100.000000, 348.595889
100.000000, 10.313506
100.000000, 32.246501
100.000000, 54.394880
100.000000, 76.758647
100.000000, 99.337809
100.000000, 122.132369
100.000000, 145.142333
100.000000, 168.367705
100.000000, 191.808491
100.000000, 215.464694
100.000000, 239.336319
100.000000, 263.423369
100.000000, 287.725846
100.000000, 312.243754
100.000000, 336.977094
100.000000, 1.925867
100.000000, 27.090075
100.000000, 52.469716
100.000000, 78.064790
100.000000, 103.875293
100.000000, 129.901224
100.000000, 156.142577
100.000000, 182.599347
100.000000, 209.271527
100.000000, 236.159108
100.000000, 263.262082
100.000000, 290.580437
100.000000, 318.114160
100.000000, 345.863238
100.000000, 13.827654
100.000000, 42.007390
100.000000, 70.402426
100.000000, 99.012742
100.000000, 127.838314
100.000000, 156.879116
100.000000, 186.135120
100.000000, 215.606297
100.000000, 245.292616
100.000000, 275.194041
100.000000, 305.310536
100.000000, 335.642064
100.000000, 6.188582
100.000000, 36.950048
100.000000, 67.926416
100.000000, 99.117638
100.000000, 130.523663
100.000000, 162.144438
100.000000, 193.979910
100.000000, 226.030019
100.000000, 258.294708
100.000000, 290.773912
100.000000, 323.467570
100.000000, 356.375614
100.000000, 29.497977
100.000000, 62.834588
100.000000, 96.385376
100.000000, 130.150267
100.000000, 164.129185
100.000000, 198.322056
100.000000, 232.728800
100.000000, 267.349339
100.000000, 302.183594
100.000000, 337.231484
100.000000, 12.492930
100.000000, 47.967850
100.000000, 83.656164
100.000000, 119.557793
100.000000, 155.672657
100.000000, 192.000680
100.000000, 228.541783
100.000000, 265.295895
100.000000, 302.262943
100.000000, 339.442858
100.000000, 16.835575
100.000000, 54.441033
100.000000, 92.259175
100.000000, 130.289949
100.000000, 168.533310
100.000000, 206.989219
100.000000, 245.657642
100.000000, 284.538555
100.000000, 323.631944
100.000000, 2.937801
100.000000, 42.456130
100.000000, 82.186947
100.000000, 122.130280
100.000000, 162.286169
100.000000, 202.654669
100.000000, 243.235851
100.000000, 284.029803
100.000000, 325.036628
100.000000, 6.256451
100.000000, 47.689415
100.000000, 89.335688
100.000000, 131.195457
100.000000, 173.268937
100.000000, 215.556367
100.000000, 258.058016
100.000000, 300.774182
100.000000, 343.705192
100.000000, 26.851408
100.000000, 70.213229
100.000000, 113.791088
100.000000, 157.585459
100.000000, 201.596855
100.000000, 245.825836
100.000000, 290.273006
100.000000, 334.939017
100.000000, 19.824572
100.000000, 64.930428
100.000000, 110.257397
100.000000, 155.806350
100.000000, 201.578221
100.000000, 247.574007
100.000000, 293.794774
100.000000, 340.241658
100.000000, 26.915869
100.000000, 73.818696
100.000000, 120.951507
100.000000, 168.315758
100.000000, 215.912989
100.000000, 263.744837
100.000000, 311.813033
100.000000, 0.119408
100.000000, 48.665899
99.785892, 97.454553
99.144486, 146.487528
98.078528, 195.767104
96.592583, 245.295680
94.693013, 295.075788
92.387953, 345.110090
89.687274, 35.401387
86.602540, 85.952625
83.146961, 136.766900
79.335334, 187.847463
75.183981, 239.197725
70.710678, 290.821266
65.934582, 342.721840
60.876143, 34.903381
55.557023, 87.370008
50.000000, 140.126037
44.228869, 193.175982
38.268343, 246.524566
32.143947, 300.176727
25.881905, 354.137627
19.509032, 48.412658
13.052619, 103.007450
6.540313, 157.927882
0.000000, 213.180088
##END=
